kx (1/m)	特征频率 (Hz)	角频率 (rad/s)
0.0000	0.13395	0.84164
0.0000	0.20177	1.2677
0.0000	0.75486	4.7429
0.0000	1.3618	8.5561
0.0000	2.1263	13.360
0.0000	3.8720	24.328
0.0000	4.1763	26.240
0.0000	5.6178	35.298
0.0000	7.6651	48.161
0.0000	8.2607	51.904
0.0000	11.094	69.705
0.0000	12.088	75.954
0.0000	15.816	99.373
0.0000	16.323	102.56
0.0000	19.132	120.21
0.0000	23.355	146.74
0.0000	24.048	151.10
0.0000	28.751	180.65
0.0000	31.507	197.96
0.0000	32.319	203.07
0.031416	2.2191	13.943
0.031416	2.5484	16.012
0.031416	3.4742	21.829
0.031416	3.9984	25.122
0.031416	4.8395	30.408
0.031416	5.0939	32.006
0.031416	5.9851	37.605
0.031416	6.4819	40.727
0.031416	8.3368	52.382
0.031416	8.8595	55.666
0.031416	11.861	74.523
0.031416	12.150	76.339
0.031416	15.953	100.24
0.031416	16.995	106.78
0.031416	19.272	121.09
0.031416	23.466	147.44
0.031416	24.438	153.55
0.031416	28.805	180.99
0.031416	31.725	199.34
0.031416	32.404	203.60
0.031416	38.277	240.50
0.031416	38.511	241.97
0.031416	42.594	267.62
0.031416	46.690	293.36
0.031416	49.513	311.10
0.031416	54.909	345.00
0.031416	57.528	361.46
0.031416	61.005	383.31
0.031416	64.669	406.33
0.031416	66.517	417.94
0.031416	74.071	465.40
0.031416	76.797	482.53
0.031416	79.772	501.22
0.031416	85.031	534.27
0.031416	87.837	551.90
0.031416	92.549	581.50
0.031416	98.843	621.05
0.031416	100.03	628.53
0.031416	106.01	666.09
0.031416	109.78	689.77
0.062832	4.2387	26.632
0.062832	5.0158	31.515
0.062832	5.3797	33.801
0.062832	6.0376	37.935
0.062832	6.8487	43.032
0.062832	8.5802	53.911
0.062832	9.6320	60.520
0.062832	10.031	63.024
0.062832	10.397	65.327
0.062832	11.158	70.108
0.062832	12.742	80.060
0.062832	13.869	87.143
0.062832	16.456	103.40
0.062832	18.690	117.44
0.062832	19.757	124.14
0.062832	23.806	149.58
0.062832	25.554	160.56
0.062832	28.976	182.06
0.062832	32.290	202.88
0.062832	32.742	205.72
0.062832	38.628	242.71
0.062832	38.915	244.51
0.062832	42.757	268.65
0.062832	47.142	296.20
0.062832	49.707	312.32
0.062832	54.955	345.29
0.062832	57.880	363.67
0.062832	61.068	383.70
0.062832	65.030	408.60
0.062832	66.611	418.53
0.062832	74.141	465.84
0.062832	77.073	484.26
0.062832	79.836	501.62
0.062832	85.232	535.53
0.062832	87.889	552.22
0.062832	92.584	581.72
0.062832	99.093	622.62
0.062832	100.08	628.80
0.062832	106.06	666.37
0.062832	109.93	690.70
0.094248	5.9918	37.648
0.094248	7.5055	47.158
0.094248	7.5466	47.416
0.094248	7.7813	48.891
0.094248	8.6745	54.503
0.094248	10.083	63.352
0.094248	12.228	76.831
0.094248	13.888	87.259
0.094248	14.338	90.088
0.094248	14.937	93.855
0.094248	15.373	96.590
0.094248	16.408	103.10
0.094248	17.875	112.31
0.094248	20.164	126.70
0.094248	21.508	135.14
0.094248	24.406	153.35
0.094248	27.271	171.35
0.094248	29.287	184.01
0.094248	32.873	206.55
0.094248	33.648	211.42
0.094248	38.955	244.76
0.094248	39.812	250.14
0.094248	43.055	270.52
0.094248	47.820	300.46
0.094248	50.100	314.79
0.094248	55.043	345.84
0.094248	58.433	367.14
0.094248	61.202	384.55
0.094248	65.611	412.25
0.094248	66.778	419.58
0.094248	74.257	466.57
0.094248	77.520	487.07
0.094248	79.949	502.33
0.094248	85.565	537.62
0.094248	87.979	552.79
0.094248	92.644	582.10
0.094248	99.502	625.19
0.094248	100.15	629.25
0.094248	106.13	666.85
0.094248	110.17	692.24
0.12566	7.2295	45.424
0.12566	9.2274	57.978
0.12566	10.007	62.877
0.12566	10.150	63.772
0.12566	10.805	67.891
0.12566	11.870	74.582
0.12566	13.743	86.351
0.12566	16.480	103.55
0.12566	17.431	109.52
0.12566	18.432	115.81
0.12566	19.645	123.43
0.12566	20.093	126.25
0.12566	20.848	130.99
0.12566	21.816	137.07
0.12566	24.222	152.19
0.12566	25.560	160.60
0.12566	29.416	184.83
0.12566	29.777	187.09
0.12566	33.581	211.00
0.12566	35.022	220.05
0.12566	39.412	247.63
0.12566	40.981	257.49
0.12566	43.559	273.69
0.12566	48.577	305.22
0.12566	50.831	319.38
0.12566	55.180	346.71
0.12566	59.133	371.55
0.12566	61.450	386.10
0.12566	66.360	416.95
0.12566	67.063	421.37
0.12566	74.419	467.59
0.12566	78.119	490.84
0.12566	80.123	503.43
0.12566	86.026	540.52
0.12566	88.116	553.65
0.12566	92.733	582.66
0.12566	100.05	628.61
0.12566	100.27	630.02
0.12566	106.24	667.54
0.12566	110.51	694.38
0.15708	8.0555	50.614
0.15708	11.037	69.348
0.15708	12.505	78.574
0.15708	12.607	79.213
0.15708	13.083	82.206
0.15708	13.909	87.395
0.15708	15.432	96.960
0.15708	18.193	114.31
0.15708	19.933	125.24
0.15708	20.836	130.92
0.15708	22.665	142.41
0.15708	24.342	152.95
0.15708	25.053	157.41
0.15708	25.760	161.86
0.15708	26.099	163.98
0.15708	28.407	178.49
0.15708	30.533	191.84
0.15708	31.782	199.69
0.15708	34.674	217.86
0.15708	36.678	230.46
0.15708	40.061	251.71
0.15708	42.219	265.27
0.15708	44.461	279.36
0.15708	49.265	309.54
0.15708	52.033	326.93
0.15708	55.378	347.95
0.15708	59.903	376.38
0.15708	61.879	388.80
0.15708	67.013	421.05
0.15708	67.726	425.54
0.15708	74.628	468.90
0.15708	78.825	495.27
0.15708	80.391	505.11
0.15708	86.601	544.13
0.15708	88.318	554.92
0.15708	92.855	583.43
0.15708	100.35	630.53
0.15708	100.81	633.38
0.15708	106.39	668.44
0.15708	110.94	697.08
0.18850	8.7726	55.120
0.18850	12.868	80.854
0.18850	15.004	94.276
0.18850	15.082	94.762
0.18850	15.432	96.961
0.18850	16.067	100.95
0.18850	17.332	108.90
0.18850	19.800	124.41
0.18850	22.019	138.35
0.18850	22.584	141.90
0.18850	25.134	157.92
0.18850	27.285	171.44
0.18850	29.083	182.73
0.18850	30.035	188.71
0.18850	30.516	191.74
0.18850	30.847	193.82
0.18850	32.645	205.12
0.18850	34.049	213.93
0.18850	36.439	228.95
0.18850	38.507	241.95
0.18850	41.050	257.93
0.18850	43.264	271.83
0.18850	46.030	289.21
0.18850	49.893	313.49
0.18850	53.667	337.20
0.18850	55.646	349.63
0.18850	60.642	381.02
0.18850	62.585	393.23
0.18850	67.443	423.76
0.18850	68.899	432.91
0.18850	74.882	470.50
0.18850	79.543	499.79
0.18850	80.837	507.92
0.18850	87.243	548.16
0.18850	88.638	556.93
0.18850	93.013	584.42
0.18850	100.52	631.60
0.18850	101.64	638.64
0.18850	106.57	669.58
0.18850	111.46	700.31
0.21991	9.5232	59.836
0.21991	14.642	92.001
0.21991	17.504	109.98
0.21991	17.562	110.34
0.21991	17.801	111.85
0.21991	18.280	114.86
0.21991	19.371	121.71
0.21991	21.503	135.11
0.21991	23.741	149.17
0.21991	24.248	152.35
0.21991	27.136	170.50
0.21991	29.525	185.51
0.21991	32.023	201.21
0.21991	33.727	211.91
0.21991	34.493	216.73
0.21991	35.041	220.17
0.21991	35.965	225.97
0.21991	36.779	231.09
0.21991	38.951	244.74
0.21991	40.290	253.15
0.21991	42.772	268.74
0.21991	44.174	277.56
0.21991	48.209	302.90
0.21991	50.552	317.63
0.21991	55.545	349.00
0.21991	56.061	352.24
0.21991	61.316	385.26
0.21991	63.605	399.64
0.21991	67.883	426.52
0.21991	70.355	442.05
0.21991	75.180	472.37
0.21991	80.133	503.49
0.21991	81.588	512.64
0.21991	87.835	551.88
0.21991	89.201	560.47
0.21991	93.212	585.67
0.21991	100.72	632.84
0.21991	102.61	644.71
0.21991	106.79	670.99
0.21991	112.04	703.99
0.25133	10.356	65.067
0.25133	16.330	102.61
0.25133	20.001	125.67
0.25133	20.018	125.78
0.25133	20.139	126.54
0.25133	20.538	129.04
0.25133	21.493	135.04
0.25133	23.294	146.36
0.25133	25.322	159.10
0.25133	25.959	163.11
0.25133	28.721	180.46
0.25133	31.757	199.54
0.25133	33.803	212.39
0.25133	36.376	228.56
0.25133	38.415	241.37
0.25133	39.249	246.61
0.25133	40.038	251.56
0.25133	40.497	254.45
0.25133	41.916	263.37
0.25133	42.402	266.42
0.25133	45.167	283.79
0.25133	45.503	285.91
0.25133	50.704	318.58
0.25133	51.398	322.94
0.25133	56.367	354.17
0.25133	57.814	363.26
0.25133	62.019	389.68
0.25133	64.886	407.69
0.25133	68.401	429.78
0.25133	72.032	452.59
0.25133	75.526	474.54
0.25133	80.599	506.42
0.25133	82.628	519.17
0.25133	88.282	554.69
0.25133	90.108	566.17
0.25133	93.453	587.19
0.25133	100.95	634.30
0.25133	103.68	651.42
0.25133	107.06	672.70
0.25133	112.68	708.02
0.28274	11.281	70.879
0.28274	17.924	112.62
0.28274	22.178	139.35
0.28274	22.503	141.39
0.28274	22.566	141.79
0.28274	22.883	143.78
0.28274	23.673	148.74
0.28274	25.132	157.91
0.28274	26.954	169.36
0.28274	27.704	174.07
0.28274	30.250	190.06
0.28274	33.425	210.02
0.28274	36.133	227.03
0.28274	38.195	239.99
0.28274	40.824	256.50
0.28274	42.996	270.15
0.28274	43.480	273.19
0.28274	45.026	282.91
0.28274	45.547	286.18
0.28274	45.592	286.46
0.28274	47.229	296.75
0.28274	48.716	306.09
0.28274	52.173	327.82
0.28274	53.705	337.44
0.28274	56.984	358.04
0.28274	59.927	376.53
0.28274	62.942	395.48
0.28274	66.359	416.95
0.28274	69.048	433.84
0.28274	73.895	464.30
0.28274	75.933	477.10
0.28274	81.040	509.19
0.28274	83.847	526.83
0.28274	88.640	556.94
0.28274	91.310	573.72
0.28274	93.742	589.00
0.28274	101.22	636.01
0.28274	104.82	658.63
0.28274	107.40	674.82
0.28274	113.35	712.18
0.31416	12.293	77.237
0.31416	19.427	122.07
0.31416	23.973	150.63
0.31416	25.003	157.10
0.31416	25.051	157.40
0.31416	25.295	158.93
0.31416	25.899	162.73
0.31416	27.013	169.73
0.31416	28.730	180.52
0.31416	29.513	185.44
0.31416	31.815	199.90
0.31416	34.906	219.32
0.31416	38.312	240.72
0.31416	40.213	252.67
0.31416	42.332	265.98
0.31416	44.905	282.15
0.31416	47.110	296.00
0.31416	47.978	301.46
0.31416	50.025	314.32
0.31416	50.314	316.13
0.31416	51.153	321.40
0.31416	51.728	325.02
0.31416	53.956	339.01
0.31416	56.232	353.31
0.31416	58.150	365.37
0.31416	61.675	387.51
0.31416	64.434	404.85
0.31416	67.924	426.78
0.31416	69.953	439.53
0.31416	75.737	475.87
0.31416	76.589	481.22
0.31416	81.510	512.14
0.31416	85.185	535.23
0.31416	88.981	559.09
0.31416	92.734	582.67
0.31416	94.083	591.14
0.31416	101.54	638.00
0.31416	106.00	666.00
0.31416	107.85	677.61
0.31416	113.99	716.19
0.34558	13.381	84.074
0.34558	20.847	130.98
0.34558	25.435	159.81
0.34558	27.502	172.80
0.34558	27.541	173.05
0.34558	27.721	174.18
0.34558	28.141	176.81
0.34558	28.996	182.19
0.34558	30.667	192.69
0.34558	31.376	197.14
0.34558	33.433	210.07
0.34558	36.417	228.81
0.34558	40.151	252.28
0.34558	42.094	264.48
0.34558	44.143	277.36
0.34558	46.471	291.99
0.34558	48.893	307.21
0.34558	52.327	328.78
0.34558	53.205	334.30
0.34558	55.021	345.71
0.34558	55.355	347.81
0.34558	55.446	348.38
0.34558	57.242	359.66
0.34558	57.681	362.42
0.34558	60.709	381.45
0.34558	62.955	395.56
0.34558	66.602	418.47
0.34558	69.319	435.54
0.34558	71.447	448.92
0.34558	76.590	481.23
0.34558	78.438	492.84
0.34558	82.038	515.46
0.34558	86.615	544.22
0.34558	89.340	561.34
0.34558	94.315	592.60
0.34558	94.511	593.83
0.34558	101.91	640.31
0.34558	107.07	672.74
0.34558	108.51	681.79
0.34558	114.55	719.76
0.37699	14.532	91.310
0.37699	22.189	139.42
0.37699	26.642	167.40
0.37699	30.000	188.50
0.37699	30.011	188.57
0.37699	30.100	189.13
0.37699	30.395	190.98
0.37699	31.126	195.57
0.37699	32.717	205.57
0.37699	33.254	208.94
0.37699	35.122	220.68
0.37699	38.015	238.86
0.37699	41.834	262.85
0.37699	43.582	273.83
0.37699	46.132	289.85
0.37699	48.247	303.14
0.37699	50.778	319.05
0.37699	54.196	340.52
0.37699	57.066	358.56
0.37699	58.223	365.83
0.37699	59.942	376.62
0.37699	60.026	377.15
0.37699	60.228	378.42
0.37699	60.991	383.22
0.37699	63.684	400.14
0.37699	64.443	404.91
0.37699	69.083	434.06
0.37699	70.493	442.92
0.37699	73.696	463.04
0.37699	77.123	484.58
0.37699	80.771	507.50
0.37699	82.657	519.35
0.37699	88.119	553.67
0.37699	89.745	563.88
0.37699	94.932	596.48
0.37699	96.117	603.92
0.37699	102.35	643.07
0.37699	107.88	677.81
0.37699	109.55	688.35
0.37699	115.04	722.84
0.40841	15.736	98.874
0.40841	23.457	147.39
0.40841	27.706	174.08
0.40841	32.156	202.04
0.40841	32.502	204.22
0.40841	32.545	204.49
0.40841	32.771	205.91
0.40841	33.388	209.78
0.40841	34.813	218.74
0.40841	35.121	220.67
0.40841	36.918	231.96
0.40841	39.721	249.57
0.40841	43.451	273.01
0.40841	44.946	282.41
0.40841	47.776	300.19
0.40841	50.432	316.87
0.40841	52.800	331.75
0.40841	55.462	348.48
0.40841	59.056	371.06
0.40841	61.724	387.82
0.40841	63.259	397.47
0.40841	64.161	403.14
0.40841	65.017	408.51
0.40841	65.260	410.04
0.40841	65.947	414.36
0.40841	67.729	425.56
0.40841	71.153	447.07
0.40841	72.299	454.27
0.40841	76.481	480.55
0.40841	77.674	488.04
0.40841	82.934	521.09
0.40841	83.677	525.76
0.40841	89.610	563.04
0.40841	90.300	567.37
0.40841	95.478	599.91
0.40841	97.970	615.56
0.40841	102.89	646.50
0.40841	108.50	681.74
0.40841	110.89	696.73
0.40841	115.48	725.60
0.43982	16.982	106.70
0.43982	24.653	154.90
0.43982	28.715	180.42
0.43982	33.996	213.61
0.43982	35.002	219.92
0.43982	35.038	220.15
0.43982	35.221	221.30
0.43982	35.723	224.45
0.43982	36.778	231.08
0.43982	37.129	233.29
0.43982	38.845	244.07
0.43982	41.532	260.96
0.43982	45.014	282.83
0.43982	46.342	291.18
0.43982	49.184	309.03
0.43982	52.700	331.12
0.43982	54.951	345.27
0.43982	56.816	356.99
0.43982	60.118	377.73
0.43982	64.654	406.23
0.43982	66.253	416.28
0.43982	67.706	425.41
0.43982	68.696	431.63
0.43982	70.019	439.94
0.43982	70.365	442.12
0.43982	71.268	447.79
0.43982	72.905	458.08
0.43982	75.174	472.33
0.43982	78.307	492.02
0.43982	79.623	500.29
0.43982	83.963	527.55
0.43982	86.017	540.46
0.43982	90.510	568.69
0.43982	91.617	575.65
0.43982	96.136	604.04
0.43982	99.802	627.07
0.43982	103.64	651.19
0.43982	109.10	685.46
0.43982	112.36	705.99
0.43982	115.90	728.24
0.47124	18.260	114.73
0.47124	25.774	161.94
0.47124	29.725	186.77
0.47124	35.592	223.63
0.47124	37.502	235.63
0.47124	37.533	235.82
0.47124	37.684	236.78
0.47124	38.065	239.17
0.47124	38.639	242.77
0.47124	39.318	247.04
0.47124	40.888	256.91
0.47124	43.438	272.93
0.47124	46.506	292.21
0.47124	47.818	300.45
0.47124	50.559	317.67
0.47124	54.773	344.15
0.47124	57.123	358.91
0.47124	58.349	366.62
0.47124	61.323	385.30
0.47124	65.930	414.25
0.47124	69.686	437.85
0.47124	70.706	444.26
0.47124	72.552	455.86
0.47124	73.494	461.78
0.47124	75.016	471.34
0.47124	75.289	473.06
0.47124	76.374	479.87
0.47124	78.100	490.72
0.47124	79.416	498.98
0.47124	82.849	520.55
0.47124	85.074	534.54
0.47124	88.511	556.13
0.47124	91.210	573.09
0.47124	93.370	586.66
0.47124	96.986	609.38
0.47124	101.39	637.04
0.47124	104.77	658.30
0.47124	109.73	689.43
0.47124	113.92	715.78
0.47124	116.33	730.91
0.50265	19.563	122.92
0.50265	26.824	168.54
0.50265	30.765	193.31
0.50265	36.959	232.22
0.50265	40.002	251.34
0.50265	40.020	251.45
0.50265	40.096	251.93
0.50265	40.287	253.13
0.50265	40.714	255.82
0.50265	41.559	261.13
0.50265	43.011	270.24
0.50265	45.417	285.36
0.50265	47.917	301.07
0.50265	49.381	310.27
0.50265	51.991	326.67
0.50265	56.625	355.79
0.50265	59.070	371.15
0.50265	60.089	377.55
0.50265	62.833	394.79
0.50265	67.164	422.00
0.50265	71.676	450.35
0.50265	73.788	463.62
0.50265	75.237	472.73
0.50265	77.541	487.20
0.50265	79.192	497.58
0.50265	79.931	502.22
0.50265	80.022	502.79
0.50265	80.487	505.72
0.50265	82.751	519.94
0.50265	85.075	534.54
0.50265	87.481	549.66
0.50265	90.548	568.93
0.50265	92.398	580.56
0.50265	95.142	597.80
0.50265	98.218	617.12
0.50265	102.55	644.34
0.50265	106.41	668.60
0.50265	110.45	693.98
0.50265	115.55	726.00
0.50265	116.78	733.78
0.53407	20.885	131.23
0.53407	27.807	174.72
0.53407	31.850	200.12
0.53407	38.150	239.70
0.53407	42.058	264.26
0.53407	42.502	267.05
0.53407	42.531	267.23
0.53407	42.680	268.17
0.53407	43.062	270.56
0.53407	43.829	275.39
0.53407	45.187	283.92
0.53407	47.444	298.10
0.53407	49.255	309.48
0.53407	51.015	320.53
0.53407	53.518	336.27
0.53407	58.319	366.43
0.53407	60.812	382.09
0.53407	61.769	388.10
0.53407	64.757	406.88
0.53407	68.513	430.48
0.53407	73.301	460.56
0.53407	75.414	473.84
0.53407	78.865	495.52
0.53407	80.338	504.78
0.53407	82.175	516.32
0.53407	82.917	520.98
0.53407	85.015	534.17
0.53407	85.313	536.03
0.53407	86.403	542.89
0.53407	87.108	547.32
0.53407	90.928	571.31
0.53407	91.786	576.71
0.53407	94.500	593.76
0.53407	96.749	607.89
0.53407	100.12	629.05
0.53407	103.41	649.72
0.53407	108.30	680.49
0.53407	111.37	699.76
0.53407	117.05	735.42
0.53407	117.49	738.24
0.56549	22.220	139.61
0.56549	28.737	180.56
0.56549	32.977	207.20
0.56549	39.227	246.47
0.56549	43.870	275.64
0.56549	45.002	282.75
0.56549	45.027	282.92
0.56549	45.153	283.70
0.56549	45.468	285.68
0.56549	46.119	289.77
0.56549	47.403	297.84
0.56549	49.471	310.83
0.56549	50.575	317.77
0.56549	52.694	331.08
0.56549	55.149	346.51
0.56549	59.913	376.44
0.56549	62.510	392.76
0.56549	63.260	397.47
0.56549	66.902	420.36
0.56549	70.077	440.31
0.56549	74.725	469.51
0.56549	76.931	483.37
0.56549	80.774	507.52
0.56549	83.355	523.73
0.56549	85.247	535.62
0.56549	86.784	545.28
0.56549	87.988	552.84
0.56549	90.015	565.58
0.56549	90.279	567.24
0.56549	91.447	574.58
0.56549	92.727	582.62
0.56549	94.452	593.46
0.56549	97.062	609.86
0.56549	98.369	618.07
0.56549	102.70	645.29
0.56549	104.15	654.41
0.56549	110.00	691.14
0.56549	112.71	708.18
0.56549	117.70	739.54
0.56549	119.22	749.11
0.59690	23.561	148.04
0.59690	29.628	186.16
0.59690	34.139	214.50
0.59690	40.237	252.82
0.59690	45.595	286.48
0.59690	47.502	298.46
0.59690	47.524	298.60
0.59690	47.628	299.26
0.59690	47.879	300.84
0.59690	48.427	304.27
0.59690	49.648	311.95
0.59690	51.298	322.31
0.59690	52.097	327.34
0.59690	54.397	341.79
0.59690	56.873	357.34
0.59690	61.447	386.08
0.59690	64.196	403.36
0.59690	64.693	406.48
0.59690	68.956	433.26
0.59690	71.938	452.00
0.59690	76.048	477.82
0.59690	78.436	492.83
0.59690	81.980	515.09
0.59690	86.367	542.66
0.59690	87.724	551.18
0.59690	89.872	564.68
0.59690	91.513	574.99
0.59690	93.261	585.97
0.59690	95.014	596.99
0.59690	95.249	598.47
0.59690	96.268	604.87
0.59690	96.996	609.44
0.59690	99.866	627.48
0.59690	100.84	633.61
0.59690	104.86	658.83
0.59690	105.81	664.84
0.59690	111.24	698.94
0.59690	114.56	719.81
0.59690	118.31	743.39
0.59690	121.24	761.79
0.62832	24.905	156.48
0.62832	30.496	191.61
0.62832	35.323	221.94
0.62832	41.214	258.96
0.62832	47.219	296.69
0.62832	50.001	314.17
0.62832	50.017	314.27
0.62832	50.089	314.72
0.62832	50.281	315.92
0.62832	50.761	318.94
0.62832	51.911	326.17
0.62832	52.728	331.30
0.62832	54.049	339.60
0.62832	56.107	352.53
0.62832	58.675	368.66
0.62832	62.949	395.52
0.62832	65.808	413.49
0.62832	66.225	416.11
0.62832	70.798	444.84
0.62832	74.039	465.20
0.62832	77.349	486.00
0.62832	79.927	502.19
0.62832	83.305	523.42
0.62832	87.834	551.88
0.62832	90.962	571.53
0.62832	92.290	579.87
0.62832	94.465	593.54
0.62832	96.200	604.44
0.62832	98.066	616.17
0.62832	100.01	628.40
0.62832	100.22	629.68
0.62832	100.95	634.31
0.62832	102.69	645.21
0.62832	104.26	655.06
0.62832	105.94	665.65
0.62832	109.17	685.94
0.62832	112.22	705.12
0.62832	116.58	732.48
0.62832	119.07	748.16
0.62832	123.45	775.65
0.65973	26.244	164.90
0.65973	31.356	197.01
0.65973	36.519	229.45
0.65973	42.181	265.03
0.65973	48.725	306.15
0.65973	52.448	329.54
0.65973	52.502	329.88
0.65973	52.536	330.09
0.65973	52.698	331.11
0.65973	53.132	333.84
0.65973	53.945	338.95
0.65973	54.309	341.23
0.65973	56.141	352.75
0.65973	57.825	363.33
0.65973	60.539	380.38
0.65973	64.435	404.86
0.65973	67.309	422.91
0.65973	67.934	426.84
0.65973	72.501	455.54
0.65973	76.132	478.35
0.65973	78.712	494.56
0.65973	81.460	511.83
0.65973	84.792	532.76
0.65973	88.988	559.13
0.65973	92.987	584.26
0.65973	95.480	599.92
0.65973	96.263	604.84
0.65973	99.209	623.35
0.65973	100.95	634.29
0.65973	104.01	653.49
0.65973	105.01	659.82
0.65973	105.27	661.43
0.65973	105.93	665.58
0.65973	106.78	670.93
0.65973	109.04	685.10
0.65973	112.74	708.38
0.65973	113.18	711.13
0.65973	118.32	743.40
0.65973	120.22	755.34
0.65973	125.42	788.06
0.69115	27.573	173.24
0.69115	32.219	202.44
0.69115	37.715	236.97
0.69115	43.154	271.14
0.69115	50.102	314.80
0.69115	54.691	343.64
0.69115	55.002	345.59
0.69115	55.027	345.74
0.69115	55.159	346.57
0.69115	55.376	347.94
0.69115	55.541	348.98
0.69115	56.569	355.43
0.69115	58.212	365.76
0.69115	59.588	374.40
0.69115	62.452	392.40
0.69115	65.917	414.17
0.69115	68.798	432.27
0.69115	69.734	438.15
0.69115	74.157	465.94
0.69115	77.936	489.68
0.69115	80.233	504.12
0.69115	83.135	522.35
0.69115	86.412	542.94
0.69115	90.084	566.01
0.69115	94.329	592.69
0.69115	97.811	614.56
0.69115	99.053	622.37
0.69115	100.85	633.63
0.69115	105.56	663.24
0.69115	106.61	669.83
0.69115	106.94	671.93
0.69115	110.01	691.23
0.69115	110.23	692.61
0.69115	111.49	700.53
0.69115	112.60	707.46
0.69115	114.50	719.44
0.69115	116.44	731.59
0.69115	119.54	751.10
0.69115	121.97	766.34
0.69115	126.34	793.80
0.72257	28.883	181.48
0.72257	33.099	207.96
0.72257	38.902	244.43
0.72257	44.144	277.36
0.72257	51.353	322.66
0.72257	56.621	355.76
0.72257	57.027	358.31
0.72257	57.502	361.29
0.72257	57.524	361.44
0.72257	57.640	362.16
0.72257	57.974	364.26
0.72257	58.872	369.90
0.72257	60.179	378.11
0.72257	61.480	386.29
0.72257	64.400	404.64
0.72257	67.403	423.51
0.72257	70.321	441.84
0.72257	71.584	449.77
0.72257	75.811	476.33
0.72257	79.367	498.68
0.72257	81.886	514.50
0.72257	85.009	534.13
0.72257	88.145	553.83
0.72257	91.186	572.94
0.72257	95.497	600.03
0.72257	99.795	627.03
0.72257	100.73	632.93
0.72257	103.94	653.06
0.72257	107.64	676.30
0.72257	109.29	686.71
0.72257	110.40	693.63
0.72257	114.39	718.73
0.72257	115.01	722.65
0.72257	115.21	723.89
0.72257	116.31	730.79
0.72257	117.54	738.54
0.72257	120.07	754.44
0.72257	120.64	758.02
0.72257	124.16	780.13
0.72257	127.10	798.61
0.75398	30.165	189.53
0.75398	34.007	213.67
0.75398	40.073	251.79
0.75398	45.158	283.74
0.75398	52.495	329.84
0.75398	58.191	365.63
0.75398	58.974	370.55
0.75398	60.002	377.00
0.75398	60.022	377.13
0.75398	60.126	377.78
0.75398	60.415	379.60
0.75398	61.128	384.08
0.75398	62.074	390.02
0.75398	63.548	399.28
0.75398	66.363	416.97
0.75398	68.903	432.93
0.75398	71.885	451.67
0.75398	73.472	461.64
0.75398	77.478	486.81
0.75398	80.573	506.25
0.75398	83.539	524.89
0.75398	87.004	546.66
0.75398	90.002	565.50
0.75398	92.333	580.15
0.75398	96.645	607.24
0.75398	101.49	637.66
0.75398	102.15	641.85
0.75398	107.09	672.84
0.75398	109.07	685.28
0.75398	111.87	702.88
0.75398	114.95	722.28
0.75398	115.58	726.21
0.75398	120.01	754.06
0.75398	120.19	755.15
0.75398	120.50	757.10
0.75398	121.10	760.90
0.75398	122.53	769.90
0.75398	123.35	775.02
0.75398	126.85	797.00
0.75398	127.98	804.15
0.78540	31.409	197.35
0.78540	34.958	219.65
0.78540	41.223	259.01
0.78540	46.202	290.29
0.78540	53.553	336.49
0.78540	59.759	375.48
0.78540	60.802	382.03
0.78540	62.502	392.71
0.78540	62.520	392.83
0.78540	62.608	393.38
0.78540	62.828	394.76
0.78540	63.260	397.47
0.78540	64.116	402.85
0.78540	65.735	413.02
0.78540	68.313	429.23
0.78540	70.434	442.55
0.78540	73.485	461.72
0.78540	75.392	473.70
0.78540	79.161	497.38
0.78540	81.695	513.30
0.78540	85.153	535.03
0.78540	88.939	558.82
0.78540	92.019	578.17
0.78540	93.561	587.86
0.78540	97.828	614.67
0.78540	102.70	645.29
0.78540	103.95	653.17
0.78540	108.75	683.27
0.78540	111.93	703.30
0.78540	114.40	718.79
0.78540	116.53	732.17
0.78540	119.80	752.71
0.78540	121.98	766.45
0.78540	125.00	785.39
0.78540	125.03	785.58
0.78540	125.36	787.64
0.78540	125.91	791.13
0.78540	126.60	795.45
0.78540	128.73	808.81
0.78540	130.50	819.93
0.81681	32.603	204.85
0.81681	35.962	225.96
0.81681	42.351	266.10
0.81681	47.273	297.03
0.81681	54.553	342.77
0.81681	61.357	385.52
0.81681	62.418	392.19
0.81681	64.948	408.08
0.81681	65.002	408.42
0.81681	65.028	408.58
0.81681	65.152	409.36
0.81681	65.486	411.46
0.81681	66.375	417.05
0.81681	67.980	427.13
0.81681	70.205	441.11
0.81681	72.032	452.59
0.81681	75.115	471.96
0.81681	77.338	485.93
0.81681	80.846	507.97
0.81681	82.819	520.37
0.81681	86.742	545.02
0.81681	90.683	569.78
0.81681	94.193	591.83
0.81681	94.898	596.26
0.81681	99.071	622.48
0.81681	103.84	652.46
0.81681	105.81	664.81
0.81681	109.82	690.00
0.81681	114.88	721.80
0.81681	117.04	735.36
0.81681	117.98	741.31
0.81681	123.07	773.28
0.81681	124.62	783.03
0.81681	127.42	800.59
0.81681	128.74	808.91
0.81681	130.01	816.89
0.81681	130.17	817.91
0.81681	130.74	821.45
0.81681	131.17	824.15
0.81681	133.73	840.28
0.84823	33.738	211.98
0.84823	37.030	232.67
0.84823	43.455	273.03
0.84823	48.371	303.92
0.84823	55.518	348.83
0.84823	62.965	395.62
0.84823	63.845	401.15
0.84823	66.968	420.77
0.84823	67.503	424.13
0.84823	67.522	424.25
0.84823	67.621	424.87
0.84823	67.910	426.69
0.84823	68.731	431.85
0.84823	70.244	441.36
0.84823	71.984	452.29
0.84823	73.751	463.39
0.84823	76.771	482.37
0.84823	79.306	498.30
0.84823	82.495	518.33
0.84823	84.019	527.91
0.84823	88.318	554.92
0.84823	92.231	579.51
0.84823	96.292	605.02
0.84823	96.494	606.29
0.84823	100.40	630.81
0.84823	105.04	660.00
0.84823	107.62	676.19
0.84823	110.84	696.45
0.84823	116.73	733.41
0.84823	119.83	752.93
0.84823	120.23	755.40
0.84823	124.50	782.27
0.84823	128.89	809.84
0.84823	129.29	812.38
0.84823	130.43	819.49
0.84823	133.98	841.83
0.84823	135.01	848.31
0.84823	135.19	849.44
0.84823	135.52	851.51
0.84823	136.51	857.71
0.87965	34.812	218.73
0.87965	38.163	239.79
0.87965	44.537	279.83
0.87965	49.489	310.95
0.87965	56.466	354.79
0.87965	64.519	405.38
0.87965	65.191	409.61
0.87965	68.949	433.22
0.87965	70.003	439.84
0.87965	70.020	439.95
0.87965	70.111	440.52
0.87965	70.373	442.17
0.87965	71.119	446.85
0.87965	72.476	455.38
0.87965	73.656	462.79
0.87965	75.613	475.09
0.87965	78.453	492.93
0.87965	81.288	510.75
0.87965	84.027	527.96
0.87965	85.392	536.53
0.87965	89.883	564.75
0.87965	93.652	588.44
0.87965	97.863	614.89
0.87965	98.643	619.79
0.87965	101.84	639.91
0.87965	106.35	668.23
0.87965	109.37	687.22
0.87965	111.90	703.11
0.87965	117.95	741.12
0.87965	121.74	764.94
0.87965	123.52	776.11
0.87965	126.25	793.24
0.87965	130.14	817.71
0.87965	131.93	828.95
0.87965	134.02	842.07
0.87965	136.56	858.01
0.87965	138.60	870.88
0.87965	140.01	879.73
0.87965	140.18	880.75
0.87965	141.10	886.58
0.91106	35.830	225.12
0.91106	39.357	247.29
0.91106	45.599	286.51
0.91106	50.622	318.07
0.91106	57.411	360.73
0.91106	65.872	413.89
0.91106	66.648	418.76
0.91106	70.913	445.56
0.91106	72.503	455.55
0.91106	72.520	455.65
0.91106	72.604	456.19
0.91106	72.844	457.69
0.91106	73.505	461.84
0.91106	74.510	468.16
0.91106	75.426	473.91
0.91106	77.580	487.45
0.91106	80.169	503.71
0.91106	83.278	523.25
0.91106	85.390	536.52
0.91106	86.992	546.59
0.91106	91.429	574.46
0.91106	95.026	597.07
0.91106	99.473	625.01
0.91106	100.61	632.12
0.91106	103.46	650.06
0.91106	107.81	677.41
0.91106	111.07	697.87
0.91106	113.02	710.12
0.91106	119.03	747.89
0.91106	123.46	775.75
0.91106	126.25	793.26
0.91106	128.69	808.55
0.91106	131.30	824.99
0.91106	133.64	839.71
0.91106	138.18	868.21
0.91106	138.89	872.65
0.91106	141.56	889.45
0.91106	143.47	901.44
0.91106	145.01	911.14
0.91106	145.17	912.15
0.94248	36.802	231.23
0.94248	40.601	255.10
0.94248	46.647	293.09
0.94248	51.760	325.22
0.94248	58.366	366.72
0.94248	67.014	421.06
0.94248	68.256	428.87
0.94248	72.838	457.66
0.94248	75.003	471.26
0.94248	75.019	471.36
0.94248	75.097	471.85
0.94248	75.305	473.16
0.94248	75.742	475.90
0.94248	76.298	479.39
0.94248	77.540	487.20
0.94248	79.596	500.11
0.94248	81.931	514.78
0.94248	85.259	535.70
0.94248	86.654	544.47
0.94248	88.757	557.68
0.94248	92.941	583.97
0.94248	96.416	605.80
0.94248	101.12	635.36
0.94248	102.29	642.71
0.94248	105.23	661.19
0.94248	109.46	687.76
0.94248	112.70	708.13
0.94248	114.21	717.62
0.94248	120.10	754.60
0.94248	124.99	785.31
0.94248	128.25	805.81
0.94248	131.43	825.81
0.94248	132.85	834.73
0.94248	135.40	850.73
0.94248	140.26	881.29
0.94248	142.70	896.59
0.94248	143.65	902.57
0.94248	146.57	920.95
0.94248	148.87	935.35
0.94248	150.01	942.56
0.97389	37.739	237.12
0.97389	41.882	263.15
0.97389	47.682	299.60
0.97389	52.898	332.37
0.97389	59.338	372.83
0.97389	68.056	427.61
0.97389	69.920	439.32
0.97389	74.696	469.33
0.97389	77.256	485.41
0.97389	77.504	486.97
0.97389	77.520	487.08
0.97389	77.605	487.61
0.97389	77.847	489.13
0.97389	78.521	493.36
0.97389	79.815	501.49
0.97389	81.621	512.84
0.97389	83.753	526.24
0.97389	87.173	547.73
0.97389	87.945	552.58
0.97389	90.610	569.32
0.97389	94.409	593.19
0.97389	97.863	614.89
0.97389	102.78	645.79
0.97389	103.77	651.98
0.97389	107.06	672.66
0.97389	111.29	699.24
0.97389	114.27	717.96
0.97389	115.51	725.77
0.97389	121.21	761.60
0.97389	126.38	794.09
0.97389	129.85	815.90
0.97389	133.27	837.35
0.97389	135.25	849.83
0.97389	137.50	863.93
0.97389	142.36	894.45
0.97389	143.92	904.26
0.97389	147.84	928.88
0.97389	149.08	936.73
0.97389	151.44	951.50
0.97389	152.83	960.24
1.0053	38.652	242.85
1.0053	43.189	271.37
1.0053	48.709	306.05
1.0053	54.027	339.46
1.0053	60.333	379.08
1.0053	69.052	433.87
1.0053	71.597	449.86
1.0053	76.448	480.34
1.0053	78.665	494.27
1.0053	80.004	502.68
1.0053	80.019	502.78
1.0053	80.095	503.25
1.0053	80.311	504.61
1.0053	80.923	508.46
1.0053	82.122	515.99
1.0053	83.635	525.49
1.0053	85.646	538.13
1.0053	88.760	557.70
1.0053	89.555	562.69
1.0053	92.510	581.26
1.0053	95.829	602.11
1.0053	99.391	624.49
1.0053	104.41	656.04
1.0053	105.15	660.66
1.0053	108.86	683.97
1.0053	113.22	711.40
1.0053	115.74	727.25
1.0053	116.97	734.92
1.0053	122.40	769.09
1.0053	127.72	802.47
1.0053	131.21	824.42
1.0053	134.77	846.81
1.0053	137.30	862.69
1.0053	140.33	881.73
1.0053	144.47	907.70
1.0053	145.12	911.84
1.0053	149.95	942.16
1.0053	152.76	959.80
1.0053	154.05	967.91
1.0053	155.71	978.33
1.0367	39.548	248.49
1.0367	44.514	279.69
1.0367	49.731	312.47
1.0367	55.144	346.48
1.0367	61.356	385.51
1.0367	70.021	439.96
1.0367	73.268	460.35
1.0367	78.051	490.41
1.0367	80.089	503.21
1.0367	82.505	518.39
1.0367	82.519	518.48
1.0367	82.591	518.93
1.0367	82.791	520.19
1.0367	83.346	523.68
1.0367	84.411	530.37
1.0367	85.639	538.08
1.0367	87.603	550.43
1.0367	90.050	565.80
1.0367	91.480	574.78
1.0367	94.439	593.37
1.0367	97.207	610.77
1.0367	101.00	634.61
1.0367	105.93	665.55
1.0367	106.58	669.65
1.0367	110.63	695.08
1.0367	115.15	723.51
1.0367	117.13	735.92
1.0367	118.64	745.45
1.0367	123.70	777.22
1.0367	129.02	810.66
1.0367	132.41	831.98
1.0367	136.24	856.01
1.0367	138.97	873.17
1.0367	143.29	900.32
1.0367	146.09	917.93
1.0367	147.17	924.70
1.0367	151.21	950.11
1.0367	155.58	977.57
1.0367	157.32	988.48
1.0367	158.96	998.80
1.0681	40.433	254.05
1.0681	45.848	288.07
1.0681	50.751	318.88
1.0681	56.244	353.39
1.0681	62.408	392.12
1.0681	70.976	445.95
1.0681	74.918	470.72
1.0681	79.486	499.43
1.0681	81.607	512.75
1.0681	85.006	534.11
1.0681	85.019	534.19
1.0681	85.086	534.61
1.0681	85.272	535.78
1.0681	85.759	538.84
1.0681	86.631	544.32
1.0681	87.672	550.86
1.0681	89.586	562.88
1.0681	91.341	573.91
1.0681	93.468	587.28
1.0681	96.380	605.57
1.0681	98.559	619.27
1.0681	102.68	645.16
1.0681	107.26	673.92
1.0681	108.15	679.50
1.0681	112.38	706.11
1.0681	116.97	734.95
1.0681	118.43	744.12
1.0681	120.54	757.36
1.0681	125.11	786.10
1.0681	130.31	818.77
1.0681	133.55	839.15
1.0681	137.64	864.84
1.0681	140.56	883.15
1.0681	145.39	913.51
1.0681	148.27	931.62
1.0681	149.49	939.29
1.0681	152.62	958.94
1.0681	157.27	988.14
1.0681	160.20	1006.6
1.0681	162.11	1018.6
1.0996	41.312	259.57
1.0996	47.186	296.48
1.0996	51.771	325.29
1.0996	57.327	360.20
1.0996	63.489	398.92
1.0996	71.923	451.91
1.0996	76.532	480.86
1.0996	80.795	507.65
1.0996	83.212	522.83
1.0996	87.506	549.82
1.0996	87.519	549.90
1.0996	87.580	550.28
1.0996	87.740	551.29
1.0996	88.106	553.59
1.0996	88.747	557.61
1.0996	89.798	564.22
1.0996	91.498	574.90
1.0996	92.801	583.09
1.0996	95.469	599.85
1.0996	98.311	617.70
1.0996	99.918	627.80
1.0996	104.41	656.03
1.0996	108.49	681.67
1.0996	109.78	689.80
1.0996	114.14	717.17
1.0996	118.66	745.54
1.0996	119.70	752.10
1.0996	122.57	770.15
1.0996	126.67	795.89
1.0996	131.60	826.84
1.0996	134.69	846.30
1.0996	138.98	873.21
1.0996	142.15	893.18
1.0996	146.67	921.56
1.0996	150.68	946.78
1.0996	151.93	954.58
1.0996	154.48	970.63
1.0996	158.89	998.31
1.0996	161.76	1016.4
1.0996	165.68	1041.0
1.1310	42.188	265.08
1.1310	48.520	304.86
1.1310	52.796	331.72
1.1310	58.392	366.89
1.1310	64.596	405.87
1.1310	72.869	457.85
1.1310	78.088	490.64
1.1310	82.051	515.54
1.1310	84.861	533.20
1.1310	89.967	565.28
1.1310	90.007	565.53
1.1310	90.025	565.64
1.1310	90.111	566.18
1.1310	90.339	567.62
1.1310	90.934	571.36
1.1310	92.009	578.11
1.1310	93.239	585.84
1.1310	94.592	594.34
1.1310	97.470	612.42
1.1310	100.17	629.38
1.1310	101.35	636.82
1.1310	106.17	667.09
1.1310	109.70	689.26
1.1310	111.44	700.17
1.1310	115.92	728.32
1.1310	120.22	755.37
1.1310	120.99	760.19
1.1310	124.62	783.02
1.1310	128.40	806.74
1.1310	132.88	834.92
1.1310	135.87	853.67
1.1310	140.25	881.25
1.1310	143.76	903.30
1.1310	147.73	928.23
1.1310	152.37	957.35
1.1310	154.53	970.96
1.1310	156.95	986.13
1.1310	160.53	1008.7
1.1310	163.35	1026.4
1.1310	167.42	1051.9
1.1624	43.063	270.57
1.1624	49.847	313.20
1.1624	53.827	338.20
1.1624	59.442	373.48
1.1624	65.726	412.97
1.1624	73.818	463.81
1.1624	79.565	499.92
1.1624	83.321	523.52
1.1624	86.523	543.64
1.1624	91.657	575.90
1.1624	92.508	581.24
1.1624	92.521	581.33
1.1624	92.587	581.74
1.1624	92.772	582.90
1.1624	93.282	586.11
1.1624	94.173	591.71
1.1624	95.006	596.94
1.1624	96.641	607.21
1.1624	99.467	624.97
1.1624	101.83	639.81
1.1624	103.00	647.18
1.1624	107.93	678.16
1.1624	110.92	696.92
1.1624	113.08	710.49
1.1624	117.70	739.55
1.1624	121.67	764.45
1.1624	122.36	768.80
1.1624	126.58	795.33
1.1624	130.30	818.70
1.1624	134.18	843.06
1.1624	137.10	861.41
1.1624	141.51	889.14
1.1624	145.38	913.47
1.1624	148.75	934.63
1.1624	153.66	965.46
1.1624	156.85	985.52
1.1624	159.73	1003.6
1.1624	162.36	1020.1
1.1624	165.13	1037.5
1.1624	167.86	1054.7
1.1938	43.937	276.07
1.1938	51.159	321.44
1.1938	54.869	344.75
1.1938	60.479	380.00
1.1938	66.872	420.17
1.1938	74.774	469.82
1.1938	80.941	508.57
1.1938	84.649	531.86
1.1938	88.179	554.05
1.1938	93.029	584.52
1.1938	95.009	596.96
1.1938	95.021	597.03
1.1938	95.080	597.41
1.1938	95.238	598.40
1.1938	95.610	600.73
1.1938	96.171	604.26
1.1938	97.093	610.05
1.1938	98.796	620.75
1.1938	101.46	637.48
1.1938	103.28	648.93
1.1938	104.89	659.05
1.1938	109.66	688.98
1.1938	112.18	704.87
1.1938	114.71	720.73
1.1938	119.49	750.80
1.1938	123.01	772.92
1.1938	123.84	778.11
1.1938	128.40	806.78
1.1938	132.34	831.54
1.1938	135.50	851.35
1.1938	138.40	869.60
1.1938	142.78	897.11
1.1938	146.99	923.59
1.1938	149.77	941.05
1.1938	154.82	972.78
1.1938	158.81	997.82
1.1938	162.17	1018.9
1.1938	164.64	1034.5
1.1938	166.77	1047.9
1.1938	167.12	1050.0
1.2252	44.813	281.57
1.2252	52.451	329.56
1.2252	55.928	351.41
1.2252	61.506	386.46
1.2252	68.029	427.44
1.2252	75.739	475.88
1.2252	82.208	516.53
1.2252	86.057	540.71
1.2252	89.818	564.35
1.2252	94.242	592.14
1.2252	97.474	612.45
1.2252	97.510	612.67
1.2252	97.527	612.78
1.2252	97.605	613.27
1.2252	97.814	614.58
1.2252	98.364	618.04
1.2252	99.391	624.49
1.2252	100.99	634.52
1.2252	103.43	649.86
1.2252	104.67	657.68
1.2252	106.90	671.67
1.2252	111.29	699.23
1.2252	113.54	713.42
1.2252	116.32	730.88
1.2252	121.27	761.95
1.2252	124.34	781.28
1.2252	125.39	787.86
1.2252	130.10	817.45
1.2252	134.44	844.70
1.2252	136.86	859.92
1.2252	139.79	878.31
1.2252	144.10	905.41
1.2252	148.58	933.58
1.2252	150.82	947.61
1.2252	155.96	979.92
1.2252	160.48	1008.3
1.2252	164.02	1030.5
1.2252	165.69	1041.1
1.2252	167.27	1051.0
1.2252	169.32	1063.9
1.2566	45.691	287.08
1.2566	53.716	337.51
1.2566	57.010	358.20
1.2566	62.528	392.87
1.2566	69.191	434.74
1.2566	76.717	482.03
1.2566	83.377	523.87
1.2566	87.541	550.03
1.2566	91.434	574.50
1.2566	95.372	599.24
1.2566	99.280	623.79
1.2566	100.01	628.39
1.2566	100.02	628.47
1.2566	100.09	628.85
1.2566	100.26	629.96
1.2566	100.76	633.11
1.2566	101.75	639.30
1.2566	103.18	648.28
1.2566	105.33	661.79
1.2566	106.16	667.01
1.2566	108.96	684.61
1.2566	112.77	708.57
1.2566	115.04	722.85
1.2566	117.93	740.95
1.2566	123.00	772.86
1.2566	125.72	789.92
1.2566	126.98	797.86
1.2566	131.71	827.54
1.2566	136.47	857.44
1.2566	138.30	868.95
1.2566	141.27	887.60
1.2566	145.51	914.26
1.2566	150.13	943.32
1.2566	151.90	954.41
1.2566	157.11	987.14
1.2566	161.95	1017.5
1.2566	164.61	1034.3
1.2566	165.56	1040.2
1.2566	168.52	1058.9
1.2566	169.48	1064.8
1.2881	46.571	292.61
1.2881	54.946	345.23
1.2881	58.119	365.17
1.2881	63.546	399.27
1.2881	70.353	442.04
1.2881	77.710	488.27
1.2881	84.469	530.73
1.2881	89.079	559.70
1.2881	93.019	584.45
1.2881	96.475	606.17
1.2881	100.95	634.26
1.2881	102.51	644.11
1.2881	102.52	644.18
1.2881	102.58	644.54
1.2881	102.74	645.56
1.2881	103.20	648.43
1.2881	104.11	654.15
1.2881	105.33	661.83
1.2881	107.05	672.60
1.2881	107.91	678.03
1.2881	111.04	697.66
1.2881	114.11	716.98
1.2881	116.68	733.12
1.2881	119.53	751.01
1.2881	124.67	783.35
1.2881	127.18	799.11
1.2881	128.59	807.98
1.2881	133.25	837.24
1.2881	138.33	869.12
1.2881	139.84	878.62
1.2881	142.84	897.48
1.2881	147.05	923.92
1.2881	151.62	952.66
1.2881	153.04	961.61
1.2881	158.30	994.60
1.2881	163.28	1025.9
1.2881	163.54	1027.5
1.2881	166.94	1048.9
1.2881	167.47	1052.2
1.2881	171.18	1075.6
1.3195	47.454	298.16
1.3195	56.135	352.70
1.3195	59.262	372.36
1.3195	64.564	405.67
1.3195	71.509	449.30
1.3195	78.720	494.61
1.3195	85.509	537.27
1.3195	90.643	569.53
1.3195	94.565	594.17
1.3195	97.595	613.21
1.3195	102.53	644.23
1.3195	105.01	659.82
1.3195	105.03	659.89
1.3195	105.08	660.24
1.3195	105.23	661.19
1.3195	105.64	663.76
1.3195	106.44	668.77
1.3195	107.41	674.90
1.3195	108.72	683.11
1.3195	109.90	690.51
1.3195	113.10	710.63
1.3195	115.37	724.88
1.3195	118.39	743.89
1.3195	121.14	761.14
1.3195	126.26	793.33
1.3195	128.75	808.98
1.3195	130.21	818.15
1.3195	134.76	846.70
1.3195	139.98	879.53
1.3195	141.46	888.85
1.3195	144.50	907.91
1.3195	148.74	934.55
1.3195	153.01	961.42
1.3195	154.29	969.42
1.3195	159.54	1002.4
1.3195	162.46	1020.8
1.3195	164.54	1033.8
1.3195	166.41	1045.6
1.3195	168.24	1057.1
1.3195	172.69	1085.0
1.3509	48.339	303.72
1.3509	57.279	359.89
1.3509	60.443	379.77
1.3509	65.585	412.08
1.3509	72.655	456.50
1.3509	79.748	501.07
1.3509	86.516	543.60
1.3509	92.205	579.34
1.3509	96.067	603.61
1.3509	98.765	620.56
1.3509	104.04	653.68
1.3509	107.52	675.54
1.3509	107.53	675.61
1.3509	107.58	675.93
1.3509	107.71	676.77
1.3509	108.05	678.87
1.3509	108.64	682.62
1.3509	109.45	687.71
1.3509	110.57	694.75
1.3509	111.99	703.63
1.3509	115.07	723.02
1.3509	116.66	733.00
1.3509	120.13	754.77
1.3509	122.78	771.46
1.3509	127.78	802.84
1.3509	130.42	819.48
1.3509	131.83	828.28
1.3509	136.24	856.05
1.3509	141.48	888.97
1.3509	143.13	899.30
1.3509	146.22	918.70
1.3509	150.58	946.15
1.3509	154.31	969.54
1.3509	155.65	977.97
1.3509	160.84	1010.6
1.3509	161.38	1014.0
1.3509	165.36	1039.0
1.3509	165.74	1041.4
1.3509	169.47	1064.8
1.3509	171.73	1079.0
1.3823	49.228	309.31
1.3823	58.378	366.80
1.3823	61.661	387.43
1.3823	66.609	418.52
1.3823	73.786	463.61
1.3823	80.795	507.65
1.3823	87.505	549.81
1.3823	93.733	588.94
1.3823	97.529	612.79
1.3823	100.01	628.37
1.3823	105.46	662.61
1.3823	110.01	691.24
1.3823	110.02	691.26
1.3823	110.04	691.39
1.3823	110.11	691.87
1.3823	110.31	693.07
1.3823	110.79	696.12
1.3823	111.63	701.40
1.3823	112.61	707.57
1.3823	114.13	717.13
1.3823	116.76	733.60
1.3823	118.21	742.75
1.3823	121.82	765.44
1.3823	124.47	782.08
1.3823	129.24	812.03
1.3823	132.17	830.44
1.3823	133.42	838.28
1.3823	137.73	865.40
1.3823	142.89	897.77
1.3823	144.80	909.83
1.3823	147.96	929.67
1.3823	152.54	958.41
1.3823	155.55	977.35
1.3823	157.11	987.17
1.3823	160.31	1007.3
1.3823	162.21	1019.2
1.3823	164.32	1032.4
1.3823	166.90	1048.6
1.3823	170.68	1072.4
1.3823	170.71	1072.6
1.4137	50.120	314.91
1.4137	59.434	373.44
1.4137	62.913	395.29
1.4137	67.638	424.98
1.4137	74.901	470.61
1.4137	81.862	514.35
1.4137	88.485	555.97
1.4137	95.196	598.13
1.4137	98.973	621.86
1.4137	101.33	636.70
1.4137	106.80	671.07
1.4137	111.81	702.53
1.4137	112.52	706.98
1.4137	112.53	707.05
1.4137	112.58	707.39
1.4137	112.74	708.34
1.4137	113.15	710.97
1.4137	113.91	715.75
1.4137	114.76	721.07
1.4137	116.32	730.85
1.4137	118.08	741.93
1.4137	120.12	754.70
1.4137	123.47	775.76
1.4137	126.23	793.11
1.4137	130.68	821.07
1.4137	133.96	841.69
1.4137	134.97	848.05
1.4137	139.24	874.87
1.4137	144.21	906.11
1.4137	146.50	920.48
1.4137	149.72	940.73
1.4137	154.48	970.63
1.4137	156.83	985.37
1.4137	158.67	996.94
1.4137	159.24	1000.5
1.4137	163.27	1025.9
1.4137	163.66	1028.3
1.4137	168.03	1055.8
1.4137	169.71	1066.3
1.4137	171.88	1079.9
1.4451	51.015	320.54
1.4451	60.453	379.84
1.4451	64.194	403.34
1.4451	68.672	431.48
1.4451	75.997	477.50
1.4451	82.947	521.17
1.4451	89.464	562.12
1.4451	96.567	606.75
1.4451	100.43	631.04
1.4451	102.73	645.44
1.4451	108.09	679.14
1.4451	113.37	712.35
1.4451	115.02	722.70
1.4451	115.03	722.77
1.4451	115.08	723.08
1.4451	115.22	723.93
1.4451	115.57	726.17
1.4451	116.20	730.10
1.4451	116.99	735.06
1.4451	118.46	744.32
1.4451	119.33	749.77
1.4451	122.16	767.58
1.4451	125.05	785.72
1.4451	128.05	804.54
1.4451	132.12	830.11
1.4451	135.77	853.05
1.4451	136.49	857.59
1.4451	140.78	884.53
1.4451	145.48	914.10
1.4451	148.22	931.27
1.4451	151.50	951.90
1.4451	156.26	981.79
1.4451	158.17	993.79
1.4451	158.24	994.27
1.4451	160.33	1007.4
1.4451	162.22	1019.3
1.4451	165.18	1037.8
1.4451	168.70	1060.0
1.4451	169.14	1062.7
1.4451	173.10	1087.6
1.4765	51.914	326.18
1.4765	61.440	386.04
1.4765	65.499	411.54
1.4765	69.713	438.02
1.4765	77.075	484.27
1.4765	84.049	528.10
1.4765	90.447	568.30
1.4765	97.833	614.70
1.4765	101.95	640.54
1.4765	104.16	654.45
1.4765	109.33	686.94
1.4765	114.88	721.78
1.4765	117.52	738.43
1.4765	117.53	738.48
1.4765	117.58	738.77
1.4765	117.70	739.50
1.4765	117.97	741.20
1.4765	118.47	744.38
1.4765	119.28	749.49
1.4765	120.10	754.64
1.4765	121.08	760.76
1.4765	124.22	780.52
1.4765	126.61	795.53
1.4765	129.92	816.29
1.4765	133.57	839.24
1.4765	137.54	864.21
1.4765	138.00	867.08
1.4765	142.35	894.42
1.4765	146.72	921.88
1.4765	149.95	942.19
1.4765	153.30	963.22
1.4765	157.10	987.08
1.4765	157.76	991.23
1.4765	159.82	1004.2
1.4765	161.18	1012.7
1.4765	162.15	1018.8
1.4765	166.77	1047.9
1.4765	167.69	1053.7
1.4765	170.23	1069.6
1.4765	174.35	1095.5
1.5080	52.815	331.85
1.5080	62.401	392.07
1.5080	66.822	419.85
1.5080	70.760	444.60
1.5080	78.134	490.93
1.5080	85.166	535.12
1.5080	91.438	574.52
1.5080	98.996	622.01
1.5080	103.52	650.46
1.5080	105.61	663.56
1.5080	110.55	694.62
1.5080	116.32	730.89
1.5080	120.03	754.15
1.5080	120.03	754.17
1.5080	120.05	754.31
1.5080	120.13	754.77
1.5080	120.31	755.96
1.5080	120.80	758.98
1.5080	121.25	761.86
1.5080	121.71	764.70
1.5080	123.30	774.69
1.5080	126.21	792.97
1.5080	128.22	805.66
1.5080	131.81	828.19
1.5080	135.05	848.55
1.5080	139.14	874.26
1.5080	139.64	877.39
1.5080	143.96	904.51
1.5080	147.95	929.57
1.5080	151.70	953.13
1.5080	155.13	974.71
1.5080	156.03	980.37
1.5080	159.07	999.49
1.5080	160.14	1006.2
1.5080	161.45	1014.4
1.5080	164.12	1031.2
1.5080	166.69	1047.4
1.5080	168.44	1058.4
1.5080	171.33	1076.5
1.5080	175.32	1101.6
1.5394	53.720	337.53
1.5394	63.340	397.98
1.5394	68.157	428.24
1.5394	71.812	451.21
1.5394	79.176	497.48
1.5394	86.296	542.21
1.5394	92.439	580.81
1.5394	100.07	628.78
1.5394	105.17	660.78
1.5394	107.05	672.60
1.5394	111.78	702.31
1.5394	117.71	739.61
1.5394	122.20	767.80
1.5394	122.51	769.76
1.5394	122.53	769.88
1.5394	122.54	769.94
1.5394	122.59	770.28
1.5394	122.75	771.27
1.5394	123.21	774.13
1.5394	124.08	779.61
1.5394	125.58	789.04
1.5394	128.02	804.40
1.5394	129.99	816.73
1.5394	133.70	840.07
1.5394	136.57	858.11
1.5394	140.55	883.11
1.5394	141.44	888.68
1.5394	145.58	914.72
1.5394	149.18	937.30
1.5394	153.43	964.01
1.5394	154.97	973.68
1.5394	156.98	986.32
1.5394	159.10	999.68
1.5394	160.32	1007.3
1.5394	163.03	1024.4
1.5394	165.69	1041.1
1.5394	166.19	1044.2
1.5394	170.17	1069.2
1.5394	172.46	1083.6
1.5394	174.37	1095.6
1.5708	54.628	343.24
1.5708	64.262	403.77
1.5708	69.501	436.69
1.5708	72.871	457.86
1.5708	80.202	503.93
1.5708	87.434	549.37
1.5708	93.453	587.18
1.5708	101.09	635.17
1.5708	106.86	671.42
1.5708	108.46	681.46
1.5708	113.02	710.15
1.5708	119.02	747.85
1.5708	123.64	776.86
1.5708	124.35	781.31
1.5708	125.03	785.60
1.5708	125.04	785.66
1.5708	125.09	785.98
1.5708	125.24	786.88
1.5708	125.65	789.51
1.5708	126.49	794.76
1.5708	127.85	803.32
1.5708	129.68	814.78
1.5708	131.94	828.98
1.5708	135.56	851.75
1.5708	138.15	868.03
1.5708	141.90	891.56
1.5708	143.28	900.23
1.5708	147.21	924.93
1.5708	150.43	945.20
1.5708	153.90	966.99
1.5708	155.13	974.72
1.5708	158.07	993.16
1.5708	158.83	997.95
1.5708	161.60	1015.3
1.5708	164.56	1034.0
1.5708	164.70	1034.8
1.5708	168.27	1057.3
1.5708	171.92	1080.2
1.5708	173.41	1089.6
1.5708	173.66	1091.2
1.6022	55.539	348.96
1.6022	65.170	409.47
1.6022	70.849	445.16
1.6022	73.936	464.55
1.6022	81.216	510.29
1.6022	88.579	556.56
1.6022	94.479	593.63
1.6022	102.06	641.28
1.6022	108.59	682.29
1.6022	109.82	690.03
1.6022	114.31	718.25
1.6022	120.25	755.57
1.6022	124.95	785.11
1.6022	126.30	793.55
1.6022	127.54	801.33
1.6022	127.55	801.39
1.6022	127.59	801.69
1.6022	127.73	802.53
1.6022	128.11	804.97
1.6022	128.90	809.90
1.6022	130.02	816.97
1.6022	131.33	825.15
1.6022	134.02	842.06
1.6022	137.36	863.04
1.6022	139.80	878.38
1.6022	143.23	899.95
1.6022	145.12	911.83
1.6022	148.80	934.95
1.6022	151.75	953.46
1.6022	152.84	960.31
1.6022	156.79	985.15
1.6022	157.03	986.66
1.6022	160.64	1009.4
1.6022	162.96	1023.9
1.6022	163.70	1028.6
1.6022	166.07	1043.4
1.6022	170.29	1070.0
1.6022	172.46	1083.6
1.6022	173.59	1090.7
1.6022	175.07	1100.0
1.6336	56.453	354.70
1.6336	66.067	415.11
1.6336	72.197	453.63
1.6336	75.008	471.29
1.6336	82.218	516.59
1.6336	89.726	563.76
1.6336	95.520	600.17
1.6336	103.01	647.22
1.6336	110.34	693.28
1.6336	111.14	698.28
1.6336	115.66	726.69
1.6336	121.40	762.80
1.6336	126.33	793.76
1.6336	128.16	805.27
1.6336	130.04	817.06
1.6336	130.05	817.12
1.6336	130.09	817.40
1.6336	130.22	818.19
1.6336	130.57	820.40
1.6336	131.25	824.66
1.6336	131.98	829.24
1.6336	133.25	837.21
1.6336	136.16	855.51
1.6336	139.07	873.83
1.6336	141.51	889.13
1.6336	144.60	908.52
1.6336	146.97	923.44
1.6336	150.33	944.57
1.6336	151.78	953.65
1.6336	153.15	962.27
1.6336	156.00	980.18
1.6336	158.40	995.24
1.6336	162.37	1020.2
1.6336	162.71	1022.3
1.6336	164.46	1033.4
1.6336	167.56	1052.8
1.6336	171.52	1077.7
1.6336	172.23	1082.1
1.6336	175.08	1100.0
1.6336	176.76	1110.6
1.6650	57.369	360.46
1.6650	66.954	420.69
1.6650	73.541	462.07
1.6650	76.089	478.08
1.6650	83.213	522.84
1.6650	90.872	570.97
1.6650	96.575	606.80
1.6650	103.94	653.06
1.6650	112.05	704.02
1.6650	112.44	706.50
1.6650	117.06	735.51
1.6650	122.49	769.61
1.6650	127.77	802.81
1.6650	129.91	816.28
1.6650	132.54	832.79
1.6650	132.55	832.85
1.6650	132.59	833.10
1.6650	132.70	833.77
1.6650	132.94	835.27
1.6650	133.34	837.79
1.6650	134.05	842.27
1.6650	135.45	851.07
1.6650	138.30	868.99
1.6650	140.72	884.16
1.6650	143.26	900.15
1.6650	146.03	917.53
1.6650	148.81	935.01
1.6650	150.72	946.99
1.6650	151.77	953.63
1.6650	154.67	971.79
1.6650	154.97	973.70
1.6650	159.94	1004.9
1.6650	161.72	1016.1
1.6650	163.99	1030.4
1.6650	166.14	1043.9
1.6650	169.05	1062.2
1.6650	170.57	1071.7
1.6650	174.04	1093.5
1.6650	176.48	1108.8
1.6650	178.61	1122.2
1.6965	58.289	366.24
1.6965	67.835	426.22
1.6965	74.876	470.46
1.6965	77.180	484.93
1.6965	84.202	529.05
1.6965	92.015	578.15
1.6965	97.644	613.52
1.6965	104.86	658.86
1.6965	113.43	712.69
1.6965	114.03	716.48
1.6965	118.52	744.68
1.6965	123.52	776.13
1.6965	129.26	812.16
1.6965	131.52	826.37
1.6965	134.70	846.35
1.6965	135.05	848.53
1.6965	135.06	848.59
1.6965	135.10	848.88
1.6965	135.24	849.74
1.6965	135.64	852.24
1.6965	136.42	857.14
1.6965	137.77	865.62
1.6965	140.40	882.17
1.6965	142.33	894.27
1.6965	145.02	911.21
1.6965	147.58	927.25
1.6965	149.66	940.35
1.6965	150.64	946.52
1.6965	153.12	962.11
1.6965	153.94	967.24
1.6965	156.30	982.04
1.6965	160.73	1009.9
1.6965	161.41	1014.1
1.6965	165.52	1040.0
1.6965	167.96	1055.3
1.6965	169.63	1065.8
1.6965	170.54	1071.5
1.6965	175.73	1104.1
1.6965	177.94	1118.0
1.6965	180.18	1132.1
1.7279	59.211	372.03
1.7279	68.710	431.72
1.7279	76.195	478.75
1.7279	78.286	491.89
1.7279	85.187	535.25
1.7279	93.152	585.29
1.7279	98.727	620.32
1.7279	105.78	664.65
1.7279	114.57	719.89
1.7279	115.81	727.62
1.7279	120.03	754.14
1.7279	124.53	782.47
1.7279	130.78	821.71
1.7279	132.97	835.48
1.7279	136.38	856.88
1.7279	137.55	864.26
1.7279	137.56	864.32
1.7279	137.60	864.59
1.7279	137.73	865.38
1.7279	138.10	867.68
1.7279	138.85	872.42
1.7279	140.12	880.38
1.7279	142.36	894.46
1.7279	143.99	904.75
1.7279	146.76	922.14
1.7279	148.60	933.71
1.7279	149.26	937.84
1.7279	152.45	957.86
1.7279	152.91	960.79
1.7279	154.41	970.20
1.7279	158.03	992.90
1.7279	159.75	1003.7
1.7279	162.81	1022.9
1.7279	167.02	1049.4
1.7279	168.69	1059.9
1.7279	169.83	1067.1
1.7279	172.03	1080.9
1.7279	177.30	1114.0
1.7279	179.27	1126.4
1.7279	179.52	1127.9
1.7593	60.136	377.84
1.7593	69.581	437.19
1.7593	77.490	486.88
1.7593	79.414	498.97
1.7593	86.172	541.43
1.7593	94.281	592.39
1.7593	99.822	627.20
1.7593	106.71	670.48
1.7593	115.65	726.66
1.7593	117.60	738.93
1.7593	121.56	763.79
1.7593	125.54	788.78
1.7593	132.31	831.33
1.7593	134.29	843.76
1.7593	138.09	867.64
1.7593	140.06	880.00
1.7593	140.06	880.05
1.7593	140.11	880.32
1.7593	140.23	881.07
1.7593	140.57	883.25
1.7593	141.30	887.79
1.7593	142.46	895.10
1.7593	144.07	905.24
1.7593	145.83	916.30
1.7593	147.55	927.09
1.7593	148.49	932.98
1.7593	151.08	949.29
1.7593	151.89	954.35
1.7593	154.19	968.82
1.7593	155.70	978.28
1.7593	158.77	997.55
1.7593	159.83	1004.2
1.7593	164.14	1031.3
1.7593	167.75	1054.0
1.7593	168.52	1058.8
1.7593	171.71	1078.9
1.7593	173.53	1090.3
1.7593	178.38	1120.8
1.7593	178.81	1123.5
1.7593	181.21	1138.6
1.7907	61.063	383.67
1.7907	70.448	442.64
1.7907	78.751	494.81
1.7907	80.571	506.24
1.7907	87.158	547.63
1.7907	95.400	599.42
1.7907	100.93	634.16
1.7907	107.64	676.35
1.7907	116.69	733.18
1.7907	119.40	750.24
1.7907	123.11	773.53
1.7907	126.56	795.20
1.7907	133.82	840.84
1.7907	135.53	851.55
1.7907	139.85	878.70
1.7907	142.56	895.74
1.7907	142.57	895.79
1.7907	142.61	896.05
1.7907	142.73	896.77
1.7907	143.06	898.84
1.7907	143.74	903.13
1.7907	144.70	909.16
1.7907	145.65	915.17
1.7907	146.50	920.47
1.7907	147.82	928.81
1.7907	150.23	943.93
1.7907	150.87	947.93
1.7907	153.01	961.39
1.7907	155.79	978.84
1.7907	157.10	987.08
1.7907	157.79	991.40
1.7907	161.68	1015.8
1.7907	165.43	1039.4
1.7907	166.82	1048.2
1.7907	170.01	1068.2
1.7907	173.57	1090.5
1.7907	175.03	1099.7
1.7907	177.48	1115.1
1.7907	180.31	1132.9
1.7907	182.98	1149.7
1.8221	61.993	389.51
1.8221	71.313	448.07
1.8221	79.969	502.46
1.8221	81.765	513.75
1.8221	88.146	553.84
1.8221	96.508	606.38
1.8221	102.05	641.17
1.8221	108.59	682.28
1.8221	117.70	739.52
1.8221	121.19	761.47
1.8221	124.65	783.20
1.8221	127.63	801.91
1.8221	135.28	849.96
1.8221	136.76	859.28
1.8221	141.63	889.91
1.8221	145.07	911.48
1.8221	145.07	911.53
1.8221	145.11	911.78
1.8221	145.22	912.47
1.8221	145.45	913.87
1.8221	145.53	914.37
1.8221	146.08	917.83
1.8221	146.55	920.79
1.8221	147.58	927.30
1.8221	149.85	941.52
1.8221	149.86	941.59
1.8221	152.04	955.27
1.8221	155.00	973.92
1.8221	156.81	985.26
1.8221	157.15	987.41
1.8221	158.72	997.24
1.8221	163.55	1027.6
1.8221	165.89	1042.3
1.8221	166.69	1047.3
1.8221	171.51	1077.6
1.8221	175.36	1101.8
1.8221	176.53	1109.2
1.8221	176.58	1109.5
1.8221	181.84	1142.6
1.8221	184.78	1161.0
1.8535	62.925	395.37
1.8535	72.176	453.49
1.8535	81.138	509.81
1.8535	83.001	521.51
1.8535	89.139	560.08
1.8535	97.605	613.27
1.8535	103.17	648.25
1.8535	109.55	688.30
1.8535	118.69	745.73
1.8535	122.95	772.54
1.8535	126.16	792.67
1.8535	128.78	809.14
1.8535	136.60	858.31
1.8535	138.06	867.47
1.8535	143.42	901.16
1.8535	144.40	907.27
1.8535	147.50	926.75
1.8535	147.57	927.23
1.8535	147.58	927.28
1.8535	147.63	927.56
1.8535	147.75	928.33
1.8535	148.08	930.44
1.8535	148.76	934.67
1.8535	148.83	935.12
1.8535	149.86	941.60
1.8535	151.86	954.18
1.8535	153.94	967.21
1.8535	155.83	979.14
1.8535	157.03	986.62
1.8535	158.36	995.02
1.8535	160.50	1008.5
1.8535	164.96	1036.5
1.8535	165.43	1039.4
1.8535	167.94	1055.2
1.8535	173.00	1087.0
1.8535	175.69	1103.9
1.8535	177.07	1112.6
1.8535	178.06	1118.8
1.8535	183.44	1152.6
1.8535	186.55	1172.1
1.8850	63.859	401.24
1.8850	73.038	458.91
1.8850	82.260	516.85
1.8850	84.275	529.52
1.8850	90.137	566.35
1.8850	98.688	620.08
1.8850	104.31	655.37
1.8850	110.52	694.41
1.8850	119.66	751.86
1.8850	124.67	783.31
1.8850	127.62	801.84
1.8850	130.04	817.09
1.8850	137.78	865.72
1.8850	139.48	876.39
1.8850	143.35	900.68
1.8850	145.20	912.34
1.8850	147.81	928.74
1.8850	148.72	934.41
1.8850	150.08	942.97
1.8850	150.09	943.02
1.8850	150.13	943.27
1.8850	150.23	943.95
1.8850	150.54	945.90
1.8850	151.19	949.95
1.8850	152.18	956.20
1.8850	153.81	966.43
1.8850	154.86	973.03
1.8850	155.94	979.80
1.8850	158.99	998.93
1.8850	159.60	1002.8
1.8850	162.38	1020.2
1.8850	164.03	1030.7
1.8850	167.27	1051.0
1.8850	169.22	1063.3
1.8850	174.46	1096.2
1.8850	174.80	1098.3
1.8850	178.66	1122.5
1.8850	179.66	1128.8
1.8850	185.09	1162.9
1.8850	186.41	1171.3
1.9164	64.796	407.13
1.9164	73.899	464.32
1.9164	83.339	523.64
1.9164	85.583	537.73
1.9164	91.141	572.65
1.9164	99.760	626.81
1.9164	105.44	662.53
1.9164	111.50	700.61
1.9164	120.63	757.92
1.9164	126.30	793.56
1.9164	129.04	810.81
1.9164	131.44	825.87
1.9164	138.85	872.39
1.9164	140.99	885.85
1.9164	142.30	894.11
1.9164	146.80	922.37
1.9164	146.96	923.38
1.9164	149.83	941.43
1.9164	152.59	958.72
1.9164	152.59	958.77
1.9164	152.63	959.01
1.9164	152.73	959.66
1.9164	153.02	961.48
1.9164	153.63	965.26
1.9164	153.89	966.94
1.9164	154.47	970.54
1.9164	155.75	978.61
1.9164	158.02	992.89
1.9164	160.46	1008.2
1.9164	161.32	1013.6
1.9164	163.11	1024.9
1.9164	164.31	1032.4
1.9164	168.99	1061.8
1.9164	170.63	1072.1
1.9164	173.91	1092.7
1.9164	175.91	1105.2
1.9164	180.12	1131.8
1.9164	181.34	1139.4
1.9164	185.52	1165.6
1.9164	186.78	1173.6
1.9478	65.735	413.02
1.9478	74.760	469.73
1.9478	84.384	530.20
1.9478	86.916	546.11
1.9478	92.151	579.00
1.9478	100.82	633.46
1.9478	106.59	669.71
1.9478	112.51	706.90
1.9478	121.59	763.95
1.9478	127.81	803.02
1.9478	130.49	819.91
1.9478	132.95	835.38
1.9478	139.84	878.64
1.9478	141.26	887.54
1.9478	142.54	895.59
1.9478	145.79	916.01
1.9478	148.68	934.16
1.9478	150.95	948.43
1.9478	152.93	960.86
1.9478	155.09	974.48
1.9478	155.10	974.52
1.9478	155.14	974.75
1.9478	155.23	975.36
1.9478	155.50	977.01
1.9478	156.01	980.22
1.9478	156.64	984.21
1.9478	157.78	991.36
1.9478	160.12	1006.1
1.9478	161.71	1016.0
1.9478	162.19	1019.1
1.9478	163.35	1026.4
1.9478	166.29	1044.8
1.9478	170.49	1071.2
1.9478	172.24	1082.2
1.9478	173.03	1087.2
1.9478	177.32	1114.1
1.9478	181.51	1140.5
1.9478	183.09	1150.4
1.9478	184.62	1160.0
1.9478	188.51	1184.5
1.9792	66.676	418.94
1.9792	75.622	475.15
1.9792	85.399	536.58
1.9792	88.267	554.60
1.9792	93.168	585.39
1.9792	101.87	640.04
1.9792	107.74	676.92
1.9792	113.52	713.29
1.9792	122.54	769.95
1.9792	129.16	811.53
1.9792	132.02	829.51
1.9792	134.55	845.41
1.9792	140.21	880.99
1.9792	140.80	884.69
1.9792	144.10	905.41
1.9792	144.78	909.66
1.9792	150.32	944.51
1.9792	151.96	954.80
1.9792	152.10	955.69
1.9792	157.60	990.23
1.9792	157.61	990.27
1.9792	157.64	990.46
1.9792	157.71	990.93
1.9792	157.88	991.96
1.9792	158.22	994.16
1.9792	158.84	998.04
1.9792	159.97	1005.1
1.9792	161.27	1013.3
1.9792	162.06	1018.3
1.9792	163.16	1025.2
1.9792	165.41	1039.3
1.9792	168.31	1057.5
1.9792	171.79	1079.4
1.9792	172.14	1081.6
1.9792	174.04	1093.5
1.9792	178.69	1122.8
1.9792	182.86	1149.0
1.9792	183.72	1154.3
1.9792	184.87	1161.5
1.9792	190.26	1195.4
2.0106	67.619	424.86
2.0106	76.484	480.56
2.0106	86.391	542.81
2.0106	89.632	563.18
2.0106	94.192	591.83
2.0106	102.90	646.55
2.0106	108.89	684.15
2.0106	114.55	719.76
2.0106	123.50	775.96
2.0106	130.37	819.15
2.0106	133.64	839.70
2.0106	136.20	855.78
2.0106	139.17	874.44
2.0106	141.75	890.65
2.0106	143.77	903.33
2.0106	145.66	915.20
2.0106	151.00	948.76
2.0106	151.85	954.13
2.0106	153.36	963.60
2.0106	159.63	1003.0
2.0106	160.11	1006.0
2.0106	160.12	1006.0
2.0106	160.15	1006.3
2.0106	160.26	1007.0
2.0106	160.36	1007.6
2.0106	160.58	1009.0
2.0106	161.22	1012.9
2.0106	162.24	1019.4
2.0106	163.67	1028.4
2.0106	165.07	1037.2
2.0106	167.48	1052.3
2.0106	170.38	1070.5
2.0106	171.26	1076.1
2.0106	172.99	1086.9
2.0106	175.93	1105.4
2.0106	180.05	1131.3
2.0106	182.81	1148.7
2.0106	184.20	1157.4
2.0106	186.67	1172.9
2.0106	192.02	1206.5
2.0420	68.564	430.80
2.0420	77.347	485.98
2.0420	87.364	548.92
2.0420	91.007	571.81
2.0420	95.222	598.30
2.0420	103.93	652.99
2.0420	110.04	691.39
2.0420	115.60	726.32
2.0420	124.45	781.97
2.0420	131.48	826.12
2.0420	135.33	850.32
2.0420	137.88	866.34
2.0420	138.13	867.91
2.0420	142.70	896.63
2.0420	142.76	897.00
2.0420	147.20	924.86
2.0420	150.04	942.73
2.0420	153.23	962.80
2.0420	154.77	972.45
2.0420	159.45	1001.8
2.0420	161.11	1012.3
2.0420	162.62	1021.8
2.0420	162.62	1021.8
2.0420	162.66	1022.0
2.0420	162.76	1022.7
2.0420	163.05	1024.4
2.0420	163.63	1028.1
2.0420	164.43	1033.1
2.0420	165.30	1038.6
2.0420	167.22	1050.6
2.0420	169.55	1065.3
2.0420	170.38	1070.5
2.0420	172.47	1083.7
2.0420	174.15	1094.2
2.0420	177.83	1117.3
2.0420	181.39	1139.7
2.0420	181.91	1143.0
2.0420	185.54	1165.8
2.0420	188.48	1184.2
2.0420	191.59	1203.8
2.0735	69.511	436.75
2.0735	78.211	491.41
2.0735	88.319	554.93
2.0735	92.388	580.49
2.0735	96.258	604.80
2.0735	104.94	659.36
2.0735	111.19	698.64
2.0735	116.65	732.96
2.0735	125.41	788.00
2.0735	132.53	832.68
2.0735	137.06	861.16
2.0735	137.09	861.38
2.0735	139.58	876.98
2.0735	141.76	890.69
2.0735	143.68	902.74
2.0735	148.70	934.33
2.0735	149.08	936.72
2.0735	154.50	970.76
2.0735	156.30	982.07
2.0735	158.54	996.12
2.0735	162.41	1020.5
2.0735	165.13	1037.5
2.0735	165.13	1037.6
2.0735	165.17	1037.8
2.0735	165.26	1038.4
2.0735	165.50	1039.9
2.0735	165.92	1042.5
2.0735	166.39	1045.5
2.0735	167.36	1051.6
2.0735	169.41	1064.4
2.0735	169.50	1065.0
2.0735	171.63	1078.4
2.0735	174.59	1097.0
2.0735	175.31	1101.5
2.0735	179.69	1129.0
2.0735	181.00	1137.3
2.0735	182.74	1148.2
2.0735	186.90	1174.4
2.0735	190.10	1194.4
2.0735	190.30	1195.7
2.1049	70.459	442.71
2.1049	79.076	496.85
2.1049	89.260	560.84
2.1049	93.775	589.20
2.1049	97.298	611.34
2.1049	105.95	665.68
2.1049	112.35	705.90
2.1049	117.72	739.65
2.1049	126.38	794.05
2.1049	133.53	839.01
2.1049	136.06	854.86
2.1049	138.79	872.02
2.1049	140.76	884.40
2.1049	141.27	887.64
2.1049	144.69	909.10
2.1049	148.13	930.72
2.1049	150.17	943.53
2.1049	155.73	978.47
2.1049	157.63	990.42
2.1049	157.89	992.05
2.1049	163.60	1027.9
2.1049	167.49	1052.4
2.1049	167.64	1053.3
2.1049	167.64	1053.3
2.1049	167.68	1053.6
2.1049	167.79	1054.3
2.1049	168.10	1056.2
2.1049	168.62	1059.5
2.1049	168.70	1060.0
2.1049	169.69	1066.2
2.1049	171.60	1078.2
2.1049	173.74	1091.6
2.1049	176.36	1108.1
2.1049	176.85	1111.2
2.1049	180.09	1131.6
2.1049	181.45	1140.1
2.1049	184.17	1157.2
2.1049	188.28	1183.0
2.1049	188.61	1185.1
2.1049	190.51	1197.0
2.1363	71.410	448.68
2.1363	79.943	502.30
2.1363	90.188	566.67
2.1363	95.164	597.94
2.1363	98.343	617.91
2.1363	106.94	671.95
2.1363	113.51	713.17
2.1363	118.79	746.40
2.1363	127.35	800.15
2.1363	134.52	845.21
2.1363	135.02	848.35
2.1363	139.76	878.11
2.1363	140.49	882.72
2.1363	142.96	898.21
2.1363	145.77	915.90
2.1363	147.18	924.74
2.1363	151.58	952.41
2.1363	156.73	984.74
2.1363	156.97	986.25
2.1363	159.49	1002.1
2.1363	164.72	1035.0
2.1363	167.74	1054.0
2.1363	169.09	1062.4
2.1363	170.15	1069.1
2.1363	170.15	1069.1
2.1363	170.19	1069.3
2.1363	170.28	1069.9
2.1363	170.56	1071.7
2.1363	171.14	1075.3
2.1363	172.06	1081.1
2.1363	173.77	1091.8
2.1363	175.87	1105.0
2.1363	177.58	1115.8
2.1363	178.99	1124.7
2.1363	179.18	1125.8
2.1363	183.05	1150.1
2.1363	185.73	1166.9
2.1363	187.12	1175.7
2.1363	189.50	1190.7
2.1363	189.69	1191.9
2.1677	72.362	454.67
2.1677	80.811	507.75
2.1677	91.104	572.43
2.1677	96.556	606.68
2.1677	99.391	624.49
2.1677	107.94	678.18
2.1677	114.66	720.45
2.1677	119.87	753.18
2.1677	128.32	806.28
2.1677	133.99	841.85
2.1677	135.50	851.35
2.1677	138.76	871.84
2.1677	142.13	893.02
2.1677	144.62	908.67
2.1677	146.23	918.77
2.1677	146.95	923.33
2.1677	152.94	960.93
2.1677	155.82	979.07
2.1677	158.24	994.26
2.1677	161.08	1012.1
2.1677	165.80	1041.7
2.1677	166.87	1048.5
2.1677	170.62	1072.1
2.1677	172.66	1084.8
2.1677	172.66	1084.9
2.1677	172.70	1085.1
2.1677	172.79	1085.7
2.1677	173.05	1087.3
2.1677	173.60	1090.8
2.1677	174.43	1096.0
2.1677	175.91	1105.3
2.1677	178.02	1118.6
2.1677	178.27	1120.1
2.1677	178.84	1123.7
2.1677	181.17	1138.3
2.1677	184.48	1159.1
2.1677	185.64	1166.4
2.1677	187.42	1177.6
2.1677	188.49	1184.3
2.1677	191.13	1200.9
2.1991	73.316	460.66
2.1991	81.682	513.22
2.1991	92.011	578.12
2.1991	97.949	615.43
2.1991	100.44	631.10
2.1991	108.92	684.38
2.1991	115.82	727.73
2.1991	120.96	759.99
2.1991	129.31	812.47
2.1991	132.95	835.36
2.1991	136.47	857.48
2.1991	137.76	865.58
2.1991	143.66	902.63
2.1991	145.28	912.82
2.1991	146.27	919.06
2.1991	148.27	931.60
2.1991	154.23	969.07
2.1991	154.92	973.42
2.1991	159.56	1002.5
2.1991	162.65	1022.0
2.1991	165.99	1043.0
2.1991	166.87	1048.5
2.1991	172.13	1081.5
2.1991	175.17	1100.6
2.1991	175.17	1100.7
2.1991	175.21	1100.9
2.1991	175.30	1101.4
2.1991	175.54	1103.0
2.1991	176.05	1106.2
2.1991	176.77	1110.7
2.1991	177.34	1114.3
2.1991	178.02	1118.5
2.1991	179.94	1130.6
2.1991	180.43	1133.7
2.1991	183.33	1151.9
2.1991	184.15	1157.1
2.1991	185.80	1167.4
2.1991	187.48	1178.0
2.1991	189.21	1188.9
2.1991	192.61	1210.2
2.2305	74.272	466.66
2.2305	82.554	518.70
2.2305	92.909	583.77
2.2305	99.342	624.18
2.2305	101.50	637.71
2.2305	109.90	690.55
2.2305	116.98	735.01
2.2305	122.04	766.82
2.2305	130.30	818.71
2.2305	131.92	828.88
2.2305	136.77	859.34
2.2305	137.45	863.61
2.2305	144.34	906.89
2.2305	145.05	911.35
2.2305	147.94	929.55
2.2305	149.72	940.72
2.2305	154.03	967.79
2.2305	155.47	976.86
2.2305	160.92	1011.1
2.2305	164.18	1031.6
2.2305	165.12	1037.5
2.2305	167.97	1055.4
2.2305	173.60	1090.7
2.2305	176.42	1108.5
2.2305	177.68	1116.4
2.2305	177.69	1116.4
2.2305	177.72	1116.6
2.2305	177.80	1117.2
2.2305	178.02	1118.5
2.2305	178.46	1121.3
2.2305	179.05	1125.0
2.2305	180.13	1131.8
2.2305	181.45	1140.1
2.2305	182.60	1147.3
2.2305	182.67	1147.8
2.2305	185.38	1164.8
2.2305	186.47	1171.6
2.2305	187.16	1175.9
2.2305	191.04	1200.3
2.2305	194.14	1219.8
2.2619	75.229	472.68
2.2619	83.428	524.19
2.2619	93.800	589.36
2.2619	100.73	632.92
2.2619	102.55	644.35
2.2619	110.88	696.71
2.2619	118.14	742.30
2.2619	123.13	773.65
2.2619	130.89	822.41
2.2619	131.30	825.01
2.2619	135.78	853.10
2.2619	138.43	869.77
2.2619	143.39	900.97
2.2619	146.28	919.12
2.2619	149.65	940.31
2.2619	151.28	950.51
2.2619	153.13	962.17
2.2619	156.67	984.39
2.2619	162.32	1019.9
2.2619	164.25	1032.0
2.2619	165.66	1040.9
2.2619	169.12	1062.6
2.2619	175.02	1099.7
2.2619	175.49	1102.6
2.2619	180.19	1132.2
2.2619	180.20	1132.2
2.2619	180.22	1132.4
2.2619	180.28	1132.8
2.2619	180.43	1133.7
2.2619	180.75	1135.7
2.2619	181.19	1138.5
2.2619	181.30	1139.2
2.2619	182.25	1145.1
2.2619	183.12	1150.5
2.2619	184.85	1161.4
2.2619	185.46	1165.3
2.2619	187.13	1175.8
2.2619	188.78	1186.1
2.2619	192.84	1211.6
2.2619	195.53	1228.5
2.2934	76.188	478.70
2.2934	84.304	529.70
2.2934	94.684	594.92
2.2934	102.12	641.63
2.2934	103.61	651.00
2.2934	111.86	702.85
2.2934	119.30	749.58
2.2934	124.22	780.49
2.2934	129.86	815.95
2.2934	132.32	831.36
2.2934	134.79	846.88
2.2934	139.41	875.97
2.2934	142.45	895.06
2.2934	147.40	926.13
2.2934	151.42	951.39
2.2934	152.24	956.56
2.2934	152.90	960.68
2.2934	157.84	991.73
2.2934	163.38	1026.5
2.2934	163.72	1028.7
2.2934	167.09	1049.8
2.2934	170.33	1070.2
2.2934	174.56	1096.8
2.2934	176.40	1108.4
2.2934	179.72	1129.2
2.2934	182.28	1145.3
2.2934	182.71	1148.0
2.2934	182.71	1148.0
2.2934	182.75	1148.2
2.2934	182.84	1148.8
2.2934	183.12	1150.6
2.2934	183.66	1154.0
2.2934	184.34	1158.3
2.2934	184.45	1158.9
2.2934	185.10	1163.0
2.2934	187.06	1175.3
2.2934	188.58	1184.9
2.2934	190.75	1198.5
2.2934	194.41	1221.5
2.2934	194.57	1222.5
2.3248	77.148	484.74
2.3248	85.182	535.22
2.3248	95.562	600.43
2.3248	103.49	650.26
2.3248	104.68	657.72
2.3248	112.84	709.00
2.3248	120.46	756.86
2.3248	125.31	787.32
2.3248	128.83	809.49
2.3248	133.34	837.78
2.3248	133.80	840.67
2.3248	140.41	882.21
2.3248	141.52	889.17
2.3248	148.43	932.60
2.3248	151.35	950.97
2.3248	153.23	962.76
2.3248	154.54	971.00
2.3248	159.00	999.01
2.3248	162.50	1021.0
2.3248	165.12	1037.5
2.3248	168.47	1058.5
2.3248	171.62	1078.3
2.3248	173.62	1090.9
2.3248	177.74	1116.7
2.3248	178.25	1119.9
2.3248	183.44	1152.6
2.3248	183.87	1155.3
2.3248	185.22	1163.8
2.3248	185.23	1163.8
2.3248	185.26	1164.0
2.3248	185.34	1164.5
2.3248	185.58	1166.0
2.3248	186.01	1168.7
2.3248	186.44	1171.4
2.3248	187.32	1177.0
2.3248	188.98	1187.4
2.3248	190.16	1194.8
2.3248	192.89	1212.0
2.3248	193.26	1214.3
2.3248	196.21	1232.8
2.3562	78.110	490.78
2.3562	86.063	540.75
2.3562	96.435	605.92
2.3562	104.84	658.74
2.3562	105.77	664.56
2.3562	113.82	715.14
2.3562	121.61	764.13
2.3562	126.39	794.15
2.3562	127.81	803.05
2.3562	132.81	834.47
2.3562	134.37	844.25
2.3562	140.58	883.30
2.3562	141.41	888.51
2.3562	149.40	938.72
2.3562	150.46	945.39
2.3562	155.07	974.33
2.3562	156.17	981.26
2.3562	160.17	1006.4
2.3562	161.63	1015.6
2.3562	166.48	1046.0
2.3562	169.85	1067.2
2.3562	172.67	1084.9
2.3562	172.97	1086.8
2.3562	176.77	1110.7
2.3562	179.03	1124.9
2.3562	182.43	1146.3
2.3562	185.34	1164.5
2.3562	187.73	1179.6
2.3562	187.74	1179.6
2.3562	187.77	1179.8
2.3562	187.83	1180.2
2.3562	187.97	1181.0
2.3562	188.23	1182.7
2.3562	188.74	1185.9
2.3562	189.58	1191.2
2.3562	190.47	1196.8
2.3562	192.07	1206.8
2.3562	192.22	1207.8
2.3562	195.07	1225.7
2.3562	195.28	1227.0
2.3876	79.074	496.84
2.3876	86.945	546.29
2.3876	97.304	611.38
2.3876	106.14	666.87
2.3876	106.91	671.72
2.3876	114.80	721.30
2.3876	122.77	771.38
2.3876	126.78	796.61
2.3876	127.48	800.98
2.3876	131.83	828.29
2.3876	135.41	850.78
2.3876	139.65	877.44
2.3876	142.42	894.87
2.3876	149.58	939.83
2.3876	150.34	944.62
2.3876	156.93	986.03
2.3876	157.76	991.25
2.3876	160.76	1010.1
2.3876	161.39	1014.0
2.3876	167.78	1054.2
2.3876	171.24	1075.9
2.3876	171.73	1079.0
2.3876	174.38	1095.6
2.3876	175.30	1101.5
2.3876	180.28	1132.8
2.3876	181.43	1139.9
2.3876	186.76	1173.5
2.3876	189.93	1193.4
2.3876	190.25	1195.4
2.3876	190.26	1195.4
2.3876	190.29	1195.6
2.3876	190.38	1196.2
2.3876	190.63	1197.8
2.3876	190.83	1199.0
2.3876	191.06	1200.5
2.3876	191.45	1202.9
2.3876	192.34	1208.5
2.3876	194.11	1219.7
2.3876	194.50	1222.1
2.3876	197.21	1239.1
2.4190	80.039	502.90
2.4190	87.830	551.85
2.4190	98.170	616.82
2.4190	107.34	674.43
2.4190	108.13	679.41
2.4190	115.78	727.48
2.4190	123.92	778.60
2.4190	125.76	790.18
2.4190	128.57	807.81
2.4190	130.84	822.12
2.4190	136.45	857.35
2.4190	138.72	871.60
2.4190	143.44	901.29
2.4190	148.70	934.28
2.4190	151.26	950.40
2.4190	158.80	997.78
2.4190	159.28	1000.8
2.4190	159.89	1004.6
2.4190	162.68	1022.2
2.4190	169.00	1061.9
2.4190	170.77	1073.0
2.4190	172.68	1085.0
2.4190	173.84	1092.2
2.4190	175.81	1104.6
2.4190	180.42	1133.6
2.4190	181.52	1140.5
2.4190	188.15	1182.2
2.4190	189.56	1191.0
2.4190	191.72	1204.6
2.4190	192.54	1209.8
2.4190	192.77	1211.2
2.4190	192.77	1211.2
2.4190	192.81	1211.4
2.4190	192.90	1212.0
2.4190	192.99	1212.6
2.4190	193.18	1213.8
2.4190	193.72	1217.2
2.4190	194.69	1223.3
2.4190	196.81	1236.6
2.4190	199.21	1251.7
2.4504	81.005	508.97
2.4504	88.717	557.42
2.4504	99.033	622.24
2.4504	108.45	681.41
2.4504	109.44	687.65
2.4504	116.77	733.68
2.4504	124.74	783.76
2.4504	125.06	785.78
2.4504	129.66	814.66
2.4504	129.86	815.96
2.4504	137.51	863.97
2.4504	137.79	865.77
2.4504	144.48	907.77
2.4504	147.81	928.74
2.4504	152.17	956.10
2.4504	159.02	999.13
2.4504	160.57	1008.9
2.4504	160.80	1010.3
2.4504	164.08	1031.0
2.4504	169.81	1066.9
2.4504	170.15	1069.1
2.4504	172.37	1083.0
2.4504	174.18	1094.4
2.4504	177.25	1113.7
2.4504	179.42	1127.3
2.4504	182.74	1148.2
2.4504	188.25	1182.8
2.4504	189.50	1190.7
2.4504	191.91	1205.8
2.4504	193.17	1213.7
2.4504	194.19	1220.1
2.4504	195.28	1227.0
2.4504	195.29	1227.0
2.4504	195.32	1227.2
2.4504	195.41	1227.8
2.4504	195.66	1229.4
2.4504	196.19	1232.7
2.4504	197.11	1238.5
2.4504	199.10	1251.0
2.4504	199.94	1256.3
2.4819	81.972	515.05
2.4819	89.606	563.01
2.4819	99.893	627.65
2.4819	109.50	688.03
2.4819	110.80	696.18
2.4819	117.76	739.91
2.4819	123.72	777.35
2.4819	126.20	792.92
2.4819	128.89	809.81
2.4819	130.75	821.53
2.4819	136.87	859.96
2.4819	138.56	870.62
2.4819	145.52	914.30
2.4819	146.94	923.22
2.4819	153.07	961.77
2.4819	158.14	993.64
2.4819	161.92	1017.4
2.4819	162.63	1021.9
2.4819	165.59	1040.4
2.4819	168.84	1060.9
2.4819	170.91	1073.8
2.4819	171.23	1075.9
2.4819	175.73	1104.2
2.4819	178.42	1121.1
2.4819	178.67	1122.6
2.4819	183.98	1156.0
2.4819	186.93	1174.5
2.4819	190.80	1198.8
2.4819	190.85	1199.2
2.4819	194.44	1221.7
2.4819	195.99	1231.4
2.4819	197.80	1242.8
2.4819	197.81	1242.9
2.4819	197.84	1243.0
2.4819	197.92	1243.6
2.4819	198.16	1245.1
2.4819	198.68	1248.3
2.4819	198.71	1248.6
2.4819	199.54	1253.7
2.4819	201.28	1264.7
2.5133	82.941	521.14
2.5133	90.497	568.61
2.5133	100.75	633.04
2.5133	110.52	694.45
2.5133	112.18	704.87
2.5133	118.76	746.16
2.5133	122.70	770.95
2.5133	127.32	800.01
2.5133	127.91	803.67
2.5133	131.85	828.43
2.5133	135.94	854.16
2.5133	139.63	877.30
2.5133	146.06	917.71
2.5133	146.57	920.90
2.5133	153.97	967.44
2.5133	157.27	988.15
2.5133	163.11	1024.9
2.5133	164.52	1033.7
2.5133	167.20	1050.5
2.5133	167.87	1054.8
2.5133	169.45	1064.7
2.5133	172.27	1082.4
2.5133	177.34	1114.3
2.5133	177.43	1114.8
2.5133	180.07	1131.4
2.5133	185.23	1163.8
2.5133	185.58	1166.0
2.5133	189.82	1192.6
2.5133	192.04	1206.6
2.5133	195.71	1229.7
2.5133	197.48	1240.8
2.5133	197.81	1242.9
2.5133	200.32	1258.7
2.5133	200.33	1258.7
2.5133	200.36	1258.9
2.5133	200.44	1259.4
2.5133	200.67	1260.8
2.5133	201.16	1263.9
2.5133	201.94	1268.8
2.5133	203.15	1276.4
2.5447	83.912	527.23
2.5447	91.391	574.23
2.5447	101.61	638.43
2.5447	111.53	700.74
2.5447	113.58	713.64
2.5447	119.76	752.44
2.5447	121.68	764.56
2.5447	126.93	797.55
2.5447	128.44	807.03
2.5447	132.95	835.38
2.5447	135.02	848.38
2.5447	140.69	884.00
2.5447	145.18	912.22
2.5447	147.63	927.56
2.5447	154.88	973.13
2.5447	156.39	982.64
2.5447	164.22	1031.8
2.5447	166.42	1045.7
2.5447	166.89	1048.6
2.5447	167.99	1055.5
2.5447	168.87	1061.0
2.5447	173.29	1088.8
2.5447	176.43	1108.6
2.5447	178.98	1124.6
2.5447	181.43	1139.9
2.5447	184.22	1157.5
2.5447	186.51	1171.9
2.5447	188.79	1186.2
2.5447	193.21	1214.0
2.5447	196.25	1233.1
2.5447	197.04	1238.0
2.5447	199.60	1254.1
2.5447	202.29	1271.0
2.5447	202.84	1274.5
2.5447	202.85	1274.5
2.5447	202.87	1274.7
2.5447	202.95	1275.2
2.5447	203.17	1276.6
2.5447	203.61	1279.3
2.5447	204.15	1282.7
2.5761	84.883	533.34
2.5761	92.287	579.86
2.5761	102.47	643.81
2.5761	112.51	706.93
2.5761	114.98	722.44
2.5761	120.67	758.17
2.5761	120.76	758.76
2.5761	125.96	791.44
2.5761	129.55	813.97
2.5761	134.07	842.39
2.5761	134.11	842.61
2.5761	141.76	890.70
2.5761	144.31	906.73
2.5761	148.69	934.28
2.5761	155.52	977.13
2.5761	155.79	978.84
2.5761	165.28	1038.5
2.5761	165.91	1042.4
2.5761	166.53	1046.3
2.5761	168.31	1057.5
2.5761	170.58	1071.8
2.5761	174.31	1095.2
2.5761	175.44	1102.3
2.5761	180.65	1135.0
2.5761	182.73	1148.2
2.5761	182.85	1148.9
2.5761	187.78	1179.9
2.5761	187.85	1180.3
2.5761	194.32	1220.9
2.5761	195.03	1225.4
2.5761	198.43	1246.8
2.5761	201.24	1264.4
2.5761	201.33	1265.0
2.5761	205.36	1290.3
2.5761	205.37	1290.3
2.5761	205.38	1290.5
2.5761	205.43	1290.7
2.5761	205.53	1291.4
2.5761	205.78	1293.0
2.5761	206.27	1296.0
2.6075	85.856	539.45
2.6075	93.185	585.50
2.6075	103.32	649.18
2.6075	113.48	713.04
2.6075	116.39	731.28
2.6075	119.65	751.79
2.6075	121.77	765.10
2.6075	124.99	785.34
2.6075	130.64	820.84
2.6075	133.19	836.86
2.6075	135.20	849.46
2.6075	142.83	897.41
2.6075	143.44	901.26
2.6075	149.77	941.05
2.6075	154.64	971.60
2.6075	156.70	984.60
2.6075	164.91	1036.1
2.6075	165.09	1037.3
2.6075	166.30	1044.9
2.6075	170.19	1069.3
2.6075	172.30	1082.6
2.6075	174.45	1096.1
2.6075	175.35	1101.8
2.6075	181.49	1140.3
2.6075	182.32	1145.6
2.6075	183.99	1156.1
2.6075	186.78	1173.5
2.6075	189.23	1189.0
2.6075	193.80	1217.7
2.6075	195.37	1227.5
2.6075	199.87	1255.8
2.6075	200.19	1257.8
2.6075	202.99	1275.4
2.6075	206.94	1300.2
2.6075	207.88	1306.2
2.6075	207.89	1306.2
2.6075	207.92	1306.4
2.6075	208.00	1306.9
2.6075	208.23	1308.4
2.6075	208.58	1310.5
2.6389	86.831	545.57
2.6389	94.086	591.16
2.6389	104.18	654.56
2.6389	114.44	719.08
2.6389	117.80	740.13
2.6389	118.64	745.42
2.6389	122.78	771.47
2.6389	124.02	779.25
2.6389	131.72	827.63
2.6389	132.28	831.12
2.6389	136.34	856.62
2.6389	142.57	895.79
2.6389	143.89	904.10
2.6389	150.86	947.88
2.6389	153.75	966.06
2.6389	157.63	990.41
2.6389	163.61	1028.0
2.6389	163.94	1030.1
2.6389	167.29	1051.1
2.6389	172.03	1080.9
2.6389	173.46	1089.9
2.6389	174.01	1093.4
2.6389	176.46	1108.7
2.6389	180.12	1131.7
2.6389	183.98	1156.0
2.6389	185.23	1163.8
2.6389	185.77	1167.2
2.6389	190.66	1198.0
2.6389	192.58	1210.0
2.6389	196.39	1233.9
2.6389	199.14	1251.2
2.6389	201.36	1265.2
2.6389	204.54	1285.2
2.6389	207.45	1303.4
2.6389	208.34	1309.1
2.6389	210.41	1322.0
2.6389	210.41	1322.1
2.6389	210.44	1322.2
2.6389	210.52	1322.7
2.6389	210.74	1324.1
2.6704	87.806	551.70
2.6704	94.988	596.83
2.6704	105.03	659.93
2.6704	115.39	725.04
2.6704	117.62	739.06
2.6704	119.21	749.00
2.6704	123.06	773.18
2.6704	123.80	777.87
2.6704	131.37	825.40
2.6704	132.79	834.32
2.6704	137.49	863.87
2.6704	141.70	890.34
2.6704	144.95	910.77
2.6704	151.95	954.75
2.6704	152.87	960.50
2.6704	158.56	996.29
2.6704	162.16	1018.9
2.6704	162.94	1023.8
2.6704	168.27	1057.3
2.6704	172.47	1083.6
2.6704	173.81	1092.1
2.6704	175.68	1103.8
2.6704	177.69	1116.5
2.6704	178.75	1123.1
2.6704	184.77	1160.9
2.6704	185.57	1165.9
2.6704	186.49	1171.8
2.6704	191.36	1202.4
2.6704	192.14	1207.3
2.6704	197.38	1240.2
2.6704	198.08	1244.6
2.6704	202.87	1274.7
2.6704	205.98	1294.2
2.6704	206.33	1296.4
2.6704	209.80	1318.2
2.6704	212.86	1337.4
2.6704	212.93	1337.9
2.6704	212.94	1337.9
2.6704	212.96	1338.1
2.6704	213.04	1338.6
2.7018	88.783	557.84
2.7018	95.893	602.51
2.7018	105.89	665.31
2.7018	116.33	730.95
2.7018	116.61	732.71
2.7018	120.62	757.88
2.7018	122.09	767.12
2.7018	124.82	784.28
2.7018	130.46	819.70
2.7018	133.84	840.94
2.7018	138.66	871.21
2.7018	140.84	884.90
2.7018	146.01	917.42
2.7018	151.98	954.92
2.7018	153.05	961.67
2.7018	159.51	1002.2
2.7018	160.71	1009.8
2.7018	161.93	1017.5
2.7018	169.24	1063.3
2.7018	171.47	1077.4
2.7018	175.47	1102.5
2.7018	177.31	1114.0
2.7018	177.39	1114.6
2.7018	179.10	1125.3
2.7018	183.76	1154.6
2.7018	186.94	1174.6
2.7018	187.93	1180.8
2.7018	190.15	1194.8
2.7018	193.66	1216.8
2.7018	197.03	1238.0
2.7018	198.37	1246.4
2.7018	204.40	1284.3
2.7018	205.21	1289.4
2.7018	207.30	1302.5
2.7018	211.34	1327.9
2.7018	211.88	1331.3
2.7018	215.45	1353.7
2.7018	215.46	1353.8
2.7018	215.49	1353.9
2.7018	215.56	1354.4
2.7332	89.761	563.98
2.7332	96.800	608.21
2.7332	106.74	670.68
2.7332	115.60	726.36
2.7332	117.26	736.79
2.7332	121.13	761.07
2.7332	122.03	766.76
2.7332	125.85	790.71
2.7332	129.55	814.00
2.7332	134.88	847.47
2.7332	139.84	878.64
2.7332	139.97	879.46
2.7332	147.07	924.04
2.7332	151.09	949.31
2.7332	154.16	968.64
2.7332	159.26	1000.7
2.7332	160.47	1008.2
2.7332	160.93	1011.1
2.7332	170.20	1069.4
2.7332	170.48	1071.1
2.7332	176.03	1106.1
2.7332	176.94	1111.7
2.7332	178.95	1124.4
2.7332	180.68	1135.3
2.7332	182.75	1148.2
2.7332	188.10	1181.9
2.7332	188.95	1187.2
2.7332	189.55	1191.0
2.7332	195.21	1226.6
2.7332	195.98	1231.4
2.7332	199.36	1252.6
2.7332	204.10	1282.4
2.7332	205.91	1293.8
2.7332	208.55	1310.3
2.7332	210.91	1325.2
2.7332	212.96	1338.0
2.7332	217.98	1369.6
2.7332	217.99	1369.6
2.7332	218.01	1369.8
2.7332	218.09	1370.3
2.7646	90.740	570.14
2.7646	97.710	613.93
2.7646	107.60	676.07
2.7646	114.59	720.02
2.7646	118.19	742.58
2.7646	120.17	755.03
2.7646	123.45	775.66
2.7646	126.87	797.16
2.7646	128.65	808.33
2.7646	135.91	853.93
2.7646	139.11	874.04
2.7646	141.04	886.17
2.7646	148.11	930.62
2.7646	150.19	943.68
2.7646	155.28	975.64
2.7646	157.81	991.56
2.7646	159.92	1004.8
2.7646	161.44	1014.3
2.7646	169.48	1064.8
2.7646	171.15	1075.4
2.7646	174.69	1097.6
2.7646	178.21	1119.7
2.7646	180.68	1135.3
2.7646	181.73	1141.8
2.7646	182.39	1146.0
2.7646	187.75	1179.7
2.7646	189.16	1188.6
2.7646	191.23	1201.6
2.7646	194.93	1224.8
2.7646	196.78	1236.4
2.7646	200.36	1258.9
2.7646	202.99	1275.5
2.7646	207.39	1303.1
2.7646	209.75	1317.9
2.7646	209.95	1319.2
2.7646	214.62	1348.5
2.7646	220.27	1384.0
2.7646	220.51	1385.5
2.7646	220.51	1385.5
2.7646	220.54	1385.7
2.7960	91.721	576.30
2.7960	98.621	619.66
2.7960	108.46	681.45
2.7960	113.59	713.69
2.7960	119.10	748.32
2.7960	119.21	749.00
2.7960	124.87	784.56
2.7960	127.75	802.66
2.7960	127.90	803.60
2.7960	136.92	860.32
2.7960	138.24	868.62
2.7960	142.25	893.78
2.7960	149.15	937.16
2.7960	149.29	938.02
2.7960	156.37	982.47
2.7960	156.40	982.68
2.7960	158.91	998.46
2.7960	162.42	1020.5
2.7960	168.47	1058.5
2.7960	172.10	1081.3
2.7960	173.36	1089.3
2.7960	179.33	1126.8
2.7960	180.70	1135.4
2.7960	182.49	1146.6
2.7960	184.18	1157.2
2.7960	186.56	1172.2
2.7960	190.18	1195.0
2.7960	192.94	1212.3
2.7960	193.89	1218.2
2.7960	198.34	1246.2
2.7960	201.39	1265.4
2.7960	201.89	1268.5
2.7960	208.80	1311.9
2.7960	209.00	1313.2
2.7960	210.98	1325.6
2.7960	216.33	1359.2
2.7960	219.29	1377.8
2.7960	221.87	1394.0
2.7960	223.04	1401.4
2.7960	223.04	1401.4
2.8274	92.702	582.46
2.8274	99.535	625.40
2.8274	109.32	686.85
2.8274	112.58	707.37
2.8274	118.25	742.99
2.8274	120.00	754.01
2.8274	126.29	793.47
2.8274	126.85	797.01
2.8274	128.92	810.05
2.8274	137.38	863.21
2.8274	137.93	866.65
2.8274	143.47	901.47
2.8274	148.39	932.33
2.8274	150.19	943.66
2.8274	154.92	973.40
2.8274	157.52	989.75
2.8274	157.90	992.11
2.8274	163.41	1026.7
2.8274	167.44	1052.1
2.8274	172.05	1081.0
2.8274	173.05	1087.3
2.8274	179.67	1128.9
2.8274	180.38	1133.4
2.8274	184.34	1158.2
2.8274	185.37	1164.7
2.8274	186.00	1168.6
2.8274	191.18	1201.2
2.8274	192.84	1211.7
2.8274	194.65	1223.0
2.8274	199.90	1256.0
2.8274	200.80	1261.7
2.8274	202.48	1272.2
2.8274	208.07	1307.3
2.8274	210.09	1320.1
2.8274	212.28	1333.8
2.8274	218.05	1370.1
2.8274	218.29	1371.6
2.8274	222.85	1400.2
2.8274	224.02	1407.6
2.8274	225.15	1414.7
2.8588	93.685	588.64
2.8588	100.45	631.15
2.8588	110.17	692.25
2.8588	111.58	701.05
2.8588	117.30	736.99
2.8588	120.90	759.66
2.8588	125.95	791.38
2.8588	127.70	802.39
2.8588	129.95	816.50
2.8588	136.52	857.80
2.8588	138.93	872.94
2.8588	144.71	909.23
2.8588	147.47	926.61
2.8588	151.22	950.13
2.8588	153.48	964.33
2.8588	156.89	985.75
2.8588	158.65	996.84
2.8588	164.41	1033.0
2.8588	166.41	1045.6
2.8588	170.76	1072.9
2.8588	174.00	1093.3
2.8588	178.63	1122.4
2.8588	181.38	1139.7
2.8588	184.20	1157.3
2.8588	186.19	1169.9
2.8588	187.83	1180.2
2.8588	191.80	1205.1
2.8588	192.18	1207.5
2.8588	196.34	1233.6
2.8588	199.71	1254.8
2.8588	201.41	1265.5
2.8588	203.65	1279.6
2.8588	207.14	1301.5
2.8588	211.27	1327.4
2.8588	213.68	1342.6
2.8588	217.29	1365.3
2.8588	219.79	1381.0
2.8588	222.17	1395.9
2.8588	223.38	1403.6
2.8588	223.81	1406.2
2.8903	94.669	594.82
2.8903	101.37	636.92
2.8903	110.57	694.74
2.8903	111.04	697.66
2.8903	116.34	731.00
2.8903	121.80	765.27
2.8903	125.06	785.76
2.8903	129.12	811.30
2.8903	130.97	822.94
2.8903	135.66	852.40
2.8903	139.93	879.19
2.8903	145.95	917.06
2.8903	146.56	920.85
2.8903	152.04	955.27
2.8903	152.24	956.55
2.8903	155.88	979.39
2.8903	159.78	1003.9
2.8903	165.35	1039.0
2.8903	165.43	1039.4
2.8903	169.49	1064.9
2.8903	174.95	1099.2
2.8903	177.58	1115.7
2.8903	182.37	1145.9
2.8903	183.03	1150.0
2.8903	188.04	1181.5
2.8903	189.68	1191.8
2.8903	190.76	1198.6
2.8903	193.21	1214.0
2.8903	198.00	1244.1
2.8903	198.63	1248.0
2.8903	202.86	1274.6
2.8903	204.92	1287.6
2.8903	206.22	1295.7
2.8903	212.34	1334.2
2.8903	215.17	1351.9
2.8903	216.27	1358.9
2.8903	220.24	1383.8
2.8903	221.53	1391.9
2.8903	221.56	1392.1
2.8903	224.47	1410.4
2.9217	95.654	601.01
2.9217	102.29	642.70
2.9217	109.57	688.44
2.9217	111.90	703.08
2.9217	115.39	725.03
2.9217	122.68	770.84
2.9217	124.17	780.16
2.9217	130.54	820.22
2.9217	132.00	829.37
2.9217	134.80	847.00
2.9217	140.92	885.41
2.9217	145.63	915.05
2.9217	147.21	924.94
2.9217	150.60	946.22
2.9217	153.26	962.95
2.9217	154.86	973.04
2.9217	160.92	1011.1
2.9217	164.28	1032.2
2.9217	166.46	1045.9
2.9217	168.25	1057.1
2.9217	175.90	1105.2
2.9217	176.52	1109.1
2.9217	181.87	1142.7
2.9217	183.35	1152.0
2.9217	189.73	1192.1
2.9217	189.85	1192.9
2.9217	191.52	1203.3
2.9217	194.28	1220.7
2.9217	197.56	1241.3
2.9217	199.63	1254.3
2.9217	204.25	1283.4
2.9217	205.30	1290.0
2.9217	206.31	1296.3
2.9217	213.35	1340.5
2.9217	215.23	1352.3
2.9217	216.71	1361.6
2.9217	218.28	1371.5
2.9217	219.71	1380.5
2.9217	223.28	1402.9
2.9217	223.43	1403.9
2.9531	96.640	607.21
2.9531	103.21	648.50
2.9531	108.57	682.15
2.9531	112.76	708.51
2.9531	114.44	719.06
2.9531	123.28	774.57
2.9531	123.57	776.39
2.9531	131.96	829.13
2.9531	133.02	835.79
2.9531	133.95	841.60
2.9531	141.91	891.62
2.9531	144.70	909.21
2.9531	148.47	932.86
2.9531	149.16	937.18
2.9531	153.85	966.69
2.9531	154.27	969.32
2.9531	162.05	1018.2
2.9531	163.18	1025.3
2.9531	167.04	1049.5
2.9531	167.50	1052.5
2.9531	175.44	1102.3
2.9531	176.85	1111.2
2.9531	180.71	1135.5
2.9531	184.32	1158.1
2.9531	188.70	1185.6
2.9531	191.59	1203.8
2.9531	193.35	1214.8
2.9531	195.45	1228.1
2.9531	196.49	1234.6
2.9531	201.20	1264.1
2.9531	204.40	1284.3
2.9531	205.61	1291.9
2.9531	207.80	1305.7
2.9531	214.15	1345.6
2.9531	214.32	1346.6
2.9531	216.31	1359.1
2.9531	217.88	1369.0
2.9531	218.28	1371.5
2.9531	222.40	1397.4
2.9531	225.02	1413.9
2.9845	97.628	613.41
2.9845	104.14	654.31
2.9845	107.57	675.86
2.9845	113.50	713.11
2.9845	113.63	713.94
2.9845	122.39	768.99
2.9845	124.44	781.90
2.9845	133.09	836.21
2.9845	133.37	838.00
2.9845	134.04	842.22
2.9845	142.89	897.82
2.9845	143.77	903.32
2.9845	147.72	928.15
2.9845	149.73	940.81
2.9845	152.84	960.35
2.9845	155.28	975.68
2.9845	162.05	1018.2
2.9845	163.19	1025.3
2.9845	165.86	1042.1
2.9845	168.55	1059.1
2.9845	174.36	1095.6
2.9845	177.81	1117.2
2.9845	179.57	1128.3
2.9845	185.30	1164.3
2.9845	187.68	1179.2
2.9845	193.19	1213.9
2.9845	195.16	1226.2
2.9845	195.43	1227.9
2.9845	196.77	1236.4
2.9845	202.69	1273.5
2.9845	203.49	1278.6
2.9845	206.98	1300.5
2.9845	209.36	1315.5
2.9845	213.01	1338.4
2.9845	214.34	1346.7
2.9845	215.27	1352.6
2.9845	216.10	1357.8
2.9845	219.87	1381.5
2.9845	221.33	1390.6
2.9845	224.91	1413.2
3.0159	98.617	619.63
3.0159	105.06	660.13
3.0159	106.57	669.59
3.0159	112.55	707.17
3.0159	114.50	719.39
3.0159	121.50	763.43
3.0159	125.32	787.40
3.0159	132.23	830.81
3.0159	134.75	846.68
3.0159	135.10	848.83
3.0159	142.82	897.39
3.0159	143.88	904.01
3.0159	146.28	919.13
3.0159	151.00	948.78
3.0159	151.84	954.02
3.0159	156.29	982.03
3.0159	160.90	1011.0
3.0159	164.32	1032.5
3.0159	164.71	1034.9
3.0159	169.62	1065.7
3.0159	173.27	1088.7
3.0159	178.43	1121.1
3.0159	178.77	1123.2
3.0159	186.28	1170.4
3.0159	186.66	1172.8
3.0159	194.38	1221.3
3.0159	194.61	1222.8
3.0159	196.97	1237.6
3.0159	198.28	1245.8
3.0159	202.59	1272.9
3.0159	204.10	1282.4
3.0159	208.39	1309.4
3.0159	210.96	1325.5
3.0159	211.76	1330.5
3.0159	212.37	1334.3
3.0159	214.42	1347.2
3.0159	216.23	1358.6
3.0159	220.19	1383.5
3.0159	221.45	1391.4
3.0159	223.25	1402.7
3.0473	99.606	625.85
3.0473	105.57	663.32
3.0473	105.99	665.96
3.0473	111.61	701.25
3.0473	115.36	724.85
3.0473	120.62	757.88
3.0473	126.19	792.87
3.0473	131.37	825.41
3.0473	135.95	854.21
3.0473	136.32	856.55
3.0473	141.87	891.41
3.0473	144.85	910.12
3.0473	144.86	910.21
3.0473	150.83	947.71
3.0473	152.27	956.75
3.0473	157.31	988.39
3.0473	159.72	1003.5
3.0473	163.59	1027.9
3.0473	165.46	1039.6
3.0473	170.69	1072.5
3.0473	172.18	1081.8
3.0473	177.30	1114.0
3.0473	179.73	1129.3
3.0473	185.65	1166.5
3.0473	187.26	1176.6
3.0473	193.34	1214.8
3.0473	195.84	1230.5
3.0473	198.81	1249.2
3.0473	199.94	1256.3
3.0473	201.68	1267.2
3.0473	205.43	1290.7
3.0473	209.86	1318.6
3.0473	210.33	1321.5
3.0473	210.43	1322.1
3.0473	212.56	1335.5
3.0473	212.89	1337.6
3.0473	217.21	1364.8
3.0473	218.94	1375.6
3.0473	221.66	1392.8
3.0473	223.03	1401.4
3.0788	100.60	632.07
3.0788	104.57	657.05
3.0788	106.92	671.81
3.0788	110.67	695.34
3.0788	116.24	730.33
3.0788	119.74	752.34
3.0788	127.06	798.32
3.0788	130.51	820.01
3.0788	136.98	860.70
3.0788	137.71	865.29
3.0788	140.91	885.38
3.0788	143.42	901.12
3.0788	145.85	916.42
3.0788	149.83	941.41
3.0788	153.54	964.71
3.0788	158.32	994.77
3.0788	158.52	995.99
3.0788	162.50	1021.0
3.0788	166.59	1046.7
3.0788	171.07	1074.9
3.0788	171.77	1079.3
3.0788	176.18	1107.0
3.0788	180.71	1135.4
3.0788	184.65	1160.2
3.0788	188.26	1182.9
3.0788	192.31	1208.3
3.0788	196.94	1237.4
3.0788	200.69	1260.9
3.0788	200.77	1261.5
3.0788	201.70	1267.3
3.0788	206.68	1298.6
3.0788	208.42	1309.6
3.0788	208.79	1311.9
3.0788	211.39	1328.2
3.0788	211.52	1329.0
3.0788	214.15	1345.5
3.0788	217.57	1367.0
3.0788	218.23	1371.2
3.0788	220.16	1383.3
3.0788	223.25	1402.7
3.1102	101.59	638.31
3.1102	103.58	650.80
3.1102	107.86	677.67
3.1102	109.73	689.44
3.1102	117.11	735.81
3.1102	118.86	746.82
3.1102	127.92	803.76
3.1102	129.65	814.60
3.1102	137.98	866.98
3.1102	139.13	874.20
3.1102	139.95	879.30
3.1102	141.99	892.13
3.1102	146.84	922.64
3.1102	148.83	935.14
3.1102	154.80	972.63
3.1102	157.29	988.30
3.1102	159.35	1001.2
3.1102	161.43	1014.3
3.1102	167.72	1053.8
3.1102	169.96	1067.9
3.1102	172.86	1086.1
3.1102	175.07	1100.0
3.1102	181.68	1141.5
3.1102	183.65	1153.9
3.1102	189.26	1189.1
3.1102	191.28	1201.9
3.1102	197.96	1243.8
3.1102	199.86	1255.7
3.1102	202.59	1272.9
3.1102	203.50	1278.6
3.1102	206.47	1297.3
3.1102	207.08	1301.1
3.1102	207.89	1306.2
3.1102	210.27	1321.1
3.1102	212.96	1338.1
3.1102	215.71	1355.3
3.1102	216.09	1357.7
3.1102	218.69	1374.1
3.1102	219.33	1378.1
3.1102	221.83	1393.8
3.1416	102.58	644.55
3.1416	102.58	644.55
3.1416	108.79	683.55
3.1416	108.79	683.55
3.1416	117.98	741.31
3.1416	117.98	741.31
3.1416	128.79	809.19
3.1416	128.79	809.19
3.1416	138.97	873.17
3.1416	138.97	873.17
3.1416	140.56	883.15
3.1416	140.56	883.15
3.1416	147.84	928.88
3.1416	147.84	928.88
3.1416	156.05	980.50
3.1416	156.05	980.50
3.1416	160.38	1007.7
3.1416	160.38	1007.7
3.1416	168.84	1060.9
3.1416	168.84	1060.9
3.1416	173.96	1093.0
3.1416	173.96	1093.0
3.1416	182.67	1147.7
3.1416	182.67	1147.7
3.1416	190.27	1195.5
3.1416	190.27	1195.5
3.1416	198.92	1249.9
3.1416	198.92	1249.9
3.1416	204.52	1285.1
3.1416	204.52	1285.1
3.1416	205.30	1290.0
3.1416	205.30	1290.0
3.1416	209.07	1313.6
3.1416	209.07	1313.6
3.1416	214.54	1348.0
3.1416	214.54	1348.0
3.1416	217.22	1364.9
3.1416	217.22	1364.9
3.1416	220.52	1385.6
3.1416	220.52	1385.6